LabVIEW Measurement	
Writer_Version	2
Reader_Version	2
Separator	Tab
Decimal_Separator	.
Multi_Headings	No
X_Columns	Multi
Time_Pref	Absolute
Operator	mmolter
Date	2018/09/11
Time	13:16:57.5734778300348560879
***End_of_Header***	
	
Channels	1	
Samples	5000	
Date	2018/09/11	
Time	13:16:57.5734778300348560879	
Y_Unit_Label	Volts	
X_Dimension	Time	
X0	0.0000000000000000E+0	
Delta_X	0.001000	
***End_of_Header***		
X_Value	Voltage	Comment
0.000000	-0.017886
0.001000	-0.064126
0.002000	-0.102187
0.003000	-0.133389
0.004000	-0.152323
0.005000	-0.157057
0.006000	-0.141375
0.007000	-0.112910
0.008000	-0.080226
0.009000	-0.035596
0.010000	0.006908
0.011000	0.039914
0.012000	0.064643
0.013000	0.074110
0.014000	0.067252
0.015000	0.042103
0.016000	0.010482
0.017000	-0.030541
0.018000	-0.076588
0.019000	-0.110688
0.020000	-0.139153
0.021000	-0.153901
0.022000	-0.151711
0.023000	-0.130942
0.024000	-0.101446
0.025000	-0.064738
0.026000	-0.018079
0.027000	0.020561
0.028000	0.052536
0.029000	0.071406
0.030000	0.076783
0.031000	0.062422
0.032000	0.033345
0.033000	0.000500
0.034000	-0.044097
0.035000	-0.086505
0.036000	-0.117804
0.037000	-0.143629
0.038000	-0.152677
0.039000	-0.144949
0.040000	-0.120380
0.041000	-0.088534
0.042000	-0.047124
0.043000	-0.001303
0.044000	0.033313
0.045000	0.061842
0.046000	0.077427
0.047000	0.075881
0.048000	0.055016
0.049000	0.025359
0.050000	-0.010641
0.051000	-0.057042
0.052000	-0.095071
0.053000	-0.127464
0.054000	-0.145819
0.055000	-0.150552
0.056000	-0.136416
0.057000	-0.107436
0.058000	-0.074430
0.059000	-0.029736
0.060000	0.012253
0.061000	0.044486
0.062000	0.070407
0.063000	0.080679
0.064000	0.073112
0.065000	0.048286
0.066000	0.017695
0.067000	-0.023296
0.068000	-0.069310
0.069000	-0.104731
0.070000	-0.132649
0.071000	-0.147171
0.072000	-0.146559
0.073000	-0.125146
0.074000	-0.095167
0.075000	-0.059135
0.076000	-0.013281
0.077000	0.025423
0.078000	0.058558
0.079000	0.077717
0.080000	0.082225
0.081000	0.069409
0.082000	0.040493
0.083000	0.007810
0.084000	-0.037078
0.085000	-0.080226
0.086000	-0.111493
0.087000	-0.136287
0.088000	-0.147010
0.089000	-0.138670
0.090000	-0.113876
0.091000	-0.083221
0.092000	-0.042326
0.093000	0.003431
0.094000	0.039205
0.095000	0.068089
0.096000	0.082805
0.097000	0.082611
0.098000	0.062486
0.099000	0.032250
0.100000	-0.003976
0.101000	-0.050280
0.102000	-0.088180
0.103000	-0.119897
0.104000	-0.139539
0.105000	-0.143790
0.106000	-0.130266
0.107000	-0.102026
0.108000	-0.069020
0.109000	-0.024197
0.110000	0.018404
0.111000	0.051087
0.112000	0.076493
0.113000	0.087184
0.114000	0.080583
0.115000	0.055144
0.116000	0.024651
0.117000	-0.016051
0.118000	-0.061775
0.119000	-0.096777
0.120000	-0.125693
0.121000	-0.140119
0.122000	-0.139217
0.123000	-0.118931
0.124000	-0.088952
0.125000	-0.052759
0.126000	-0.006648
0.127000	0.032572
0.128000	0.064128
0.129000	0.084382
0.130000	0.089760
0.131000	0.076139
0.132000	0.047835
0.133000	0.015280
0.134000	-0.029221
0.135000	-0.071661
0.136000	-0.104183
0.137000	-0.129171
0.138000	-0.139250
0.139000	-0.132681
0.140000	-0.107500
0.141000	-0.076169
0.142000	-0.035242
0.143000	0.010289
0.144000	0.045130
0.145000	0.075044
0.146000	0.090372
0.147000	0.089534
0.148000	0.069699
0.149000	0.040493
0.150000	0.004397
0.151000	-0.041747
0.152000	-0.080999
0.153000	-0.112781
0.154000	-0.131972
0.155000	-0.137382
0.156000	-0.123117
0.157000	-0.094588
0.158000	-0.062097
0.159000	-0.018659
0.160000	0.024618
0.161000	0.057431
0.162000	0.082933
0.163000	0.093012
0.164000	0.087377
0.165000	0.062744
0.166000	0.031638
0.167000	-0.009321
0.168000	-0.055271
0.169000	-0.090530
0.170000	-0.118738
0.171000	-0.134516
0.172000	-0.133776
0.173000	-0.112716
0.174000	-0.083800
0.175000	-0.047800
0.176000	-0.001754
0.177000	0.038143
0.178000	0.069924
0.179000	0.089245
0.180000	0.095910
0.181000	0.082515
0.182000	0.054307
0.183000	0.020787
0.184000	-0.023167
0.185000	-0.066380
0.186000	-0.098387
0.187000	-0.124566
0.188000	-0.134742
0.189000	-0.127851
0.190000	-0.103829
0.191000	-0.072788
0.192000	-0.032054
0.193000	0.014185
0.194000	0.049638
0.195000	0.078715
0.196000	0.094880
0.197000	0.095202
0.198000	0.074432
0.199000	0.044905
0.200000	0.008744
0.201000	-0.036434
0.202000	-0.075783
0.203000	-0.107693
0.204000	-0.127496
0.205000	-0.132520
0.206000	-0.119350
0.207000	-0.091368
0.208000	-0.057911
0.209000	-0.014054
0.210000	0.029416
0.211000	0.061778
0.212000	0.088214
0.213000	0.099355
0.214000	0.092626
0.215000	0.068572
0.216000	0.037499
0.217000	-0.002591
0.218000	-0.048316
0.219000	-0.084477
0.220000	-0.113425
0.221000	-0.127947
0.222000	-0.128624
0.223000	-0.107693
0.224000	-0.077972
0.225000	-0.042165
0.226000	0.003817
0.227000	0.043037
0.228000	0.075849
0.229000	0.095974
0.230000	0.101964
0.231000	0.089373
0.232000	0.061423
0.233000	0.028450
0.234000	-0.015342
0.235000	-0.059038
0.236000	-0.091174
0.237000	-0.116226
0.238000	-0.127400
0.239000	-0.120799
0.240000	-0.096391
0.241000	-0.065221
0.242000	-0.025357
0.243000	0.021205
0.244000	0.057012
0.245000	0.087119
0.246000	0.102898
0.247000	0.102865
0.248000	0.083545
0.249000	0.053760
0.250000	0.018114
0.251000	-0.027611
0.252000	-0.067121
0.253000	-0.098967
0.254000	-0.118996
0.255000	-0.124759
0.256000	-0.111300
0.257000	-0.083156
0.258000	-0.050570
0.259000	-0.006552
0.260000	0.036758
0.261000	0.070246
0.262000	0.096071
0.263000	0.107534
0.264000	0.101706
0.265000	0.077491
0.266000	0.045838
0.267000	0.006103
0.268000	-0.039879
0.269000	-0.075171
0.270000	-0.104634
0.271000	-0.120348
0.272000	-0.119607
0.273000	-0.100062
0.274000	-0.070824
0.275000	-0.035049
0.276000	0.011223
0.277000	0.051055
0.278000	0.083255
0.279000	0.103928
0.280000	0.110368
0.281000	0.097810
0.282000	0.069152
0.283000	0.036790
0.284000	-0.006101
0.285000	-0.050215
0.286000	-0.082641
0.287000	-0.108563
0.288000	-0.118996
0.289000	-0.113264
0.290000	-0.089242
0.291000	-0.057493
0.292000	-0.017081
0.293000	0.028643
0.294000	0.064321
0.295000	0.094268
0.296000	0.110915
0.297000	0.110819
0.298000	0.091756
0.299000	0.062067
0.300000	0.027162
0.301000	-0.018498
0.302000	-0.058684
0.303000	-0.090949
0.304000	-0.110559
0.305000	-0.117128
0.306000	-0.104280
0.307000	-0.075718
0.308000	-0.042874
0.309000	0.000372
0.310000	0.043649
0.311000	0.077298
0.312000	0.103864
0.313000	0.114812
0.314000	0.109627
0.315000	0.085960
0.316000	0.054951
0.317000	0.015055
0.318000	-0.031507
0.319000	-0.067346
0.320000	-0.096037
0.321000	-0.112362
0.322000	-0.112459
0.323000	-0.092527
0.324000	-0.063289
0.325000	-0.028222
0.326000	0.017341
0.327000	0.057753
0.328000	0.090468
0.329000	0.111270
0.330000	0.117517
0.331000	0.106118
0.332000	0.077910
0.333000	0.045098
0.334000	0.001917
0.335000	-0.042230
0.336000	-0.074140
0.337000	-0.099965
0.338000	-0.111783
0.339000	-0.105375
0.340000	-0.081933
0.341000	-0.051246
0.342000	-0.011188
0.343000	0.035309
0.344000	0.071985
0.345000	0.101320
0.346000	0.117452
0.347000	0.118869
0.348000	0.099194
0.349000	0.069441
0.350000	0.034343
0.351000	-0.010931
0.352000	-0.050344
0.353000	-0.081997
0.354000	-0.103507
0.355000	-0.108981
0.356000	-0.096938
0.357000	-0.069568
0.358000	-0.036562
0.359000	0.007005
0.360000	0.051087
0.361000	0.084028
0.362000	0.110110
0.363000	0.122186
0.364000	0.117001
0.365000	0.092883
0.366000	0.062583
0.367000	0.023008
0.368000	-0.023135
0.369000	-0.059070
0.370000	-0.089081
0.371000	-0.104505
0.372000	-0.105793
0.373000	-0.086376
0.374000	-0.056269
0.375000	-0.021010
0.376000	0.024135
0.377000	0.064869
0.378000	0.096618
0.379000	0.118483
0.380000	0.125212
0.381000	0.113234
0.382000	0.085542
0.383000	0.053438
0.384000	0.010257
0.385000	-0.033825
0.386000	-0.066863
0.387000	-0.092817
0.388000	-0.104183
0.389000	-0.098870
0.390000	-0.074881
0.391000	-0.044001
0.392000	-0.004362
0.393000	0.041942
0.394000	0.077942
0.395000	0.108790
0.396000	0.124923
0.397000	0.126275
0.398000	0.107019
0.399000	0.078071
0.400000	0.043327
0.401000	-0.002494
0.402000	-0.042552
0.403000	-0.074527
0.404000	-0.095554
0.405000	-0.102283
0.406000	-0.090112
0.407000	-0.062065
0.408000	-0.029478
0.409000	0.013058
0.410000	0.057495
0.411000	0.091338
0.412000	0.117613
0.413000	0.129495
0.414000	0.125084
0.415000	0.101738
0.416000	0.070826
0.417000	0.031123
0.418000	-0.015020
0.419000	-0.051053
0.420000	-0.080774
0.421000	-0.097292
0.422000	-0.097679
0.423000	-0.078809
0.424000	-0.049571
0.425000	-0.014827
0.426000	0.031187
0.427000	0.072404
0.428000	0.104282
0.429000	0.125631
0.430000	0.133778
0.431000	0.121896
0.432000	0.093849
0.433000	0.061456
0.434000	0.018758
0.435000	-0.024970
0.436000	-0.058008
0.437000	-0.084766
0.438000	-0.095747
0.439000	-0.091239
0.440000	-0.068054
0.441000	-0.036401
0.442000	0.003205
0.443000	0.049735
0.444000	0.085477
0.445000	0.115713
0.446000	0.133327
0.447000	0.134196
0.448000	0.115584
0.449000	0.086669
0.450000	0.052665
0.451000	0.006908
0.452000	-0.033568
0.453000	-0.065994
0.454000	-0.086859
0.455000	-0.093847
0.456000	-0.082609
0.457000	-0.053822
0.458000	-0.021332
0.459000	0.021334
0.460000	0.065255
0.461000	0.098422
0.462000	0.126050
0.463000	0.138254
0.464000	0.133134
0.465000	0.110658
0.466000	0.080389
0.467000	0.040976
0.468000	-0.005038
0.469000	-0.042552
0.470000	-0.071532
0.471000	-0.087439
0.472000	-0.089500
0.473000	-0.069986
0.474000	-0.040652
0.475000	-0.006841
0.476000	0.039109
0.477000	0.079713
0.478000	0.112783
0.479000	0.134647
0.480000	0.141796
0.481000	0.131556
0.482000	0.103928
0.483000	0.071502
0.484000	0.028515
0.485000	-0.015890
0.486000	-0.048927
0.487000	-0.074494
0.488000	-0.087439
0.489000	-0.081836
0.490000	-0.058298
0.491000	-0.028126
0.492000	0.010998
0.493000	0.057431
0.494000	0.094686
0.495000	0.125116
0.496000	0.141763
0.497000	0.144178
0.498000	0.126017
0.499000	0.096200
0.500000	0.061971
0.501000	0.016568
0.502000	-0.024036
0.503000	-0.055464
0.504000	-0.078037
0.505000	-0.084766
0.506000	-0.073303
0.507000	-0.045578
0.508000	-0.013764
0.509000	0.029835
0.510000	0.074207
0.511000	0.108017
0.512000	0.134583
0.513000	0.147592
0.514000	0.143502
0.515000	0.120221
0.516000	0.089631
0.517000	0.050733
0.518000	0.004686
0.519000	-0.032183
0.520000	-0.062162
0.521000	-0.078487
0.522000	-0.080130
0.523000	-0.061743
0.524000	-0.032344
0.525000	0.002014
0.526000	0.047899
0.527000	0.088536
0.528000	0.121252
0.529000	0.143631
0.530000	0.151262
0.531000	0.140926
0.532000	0.113266
0.533000	0.081420
0.534000	0.038561
0.535000	-0.005811
0.536000	-0.039299
0.537000	-0.065897
0.538000	-0.077972
0.539000	-0.073786
0.540000	-0.050119
0.541000	-0.019722
0.542000	0.019821
0.543000	0.065577
0.544000	0.102801
0.545000	0.133713
0.546000	0.151005
0.547000	0.152390
0.548000	0.134937
0.549000	0.106279
0.550000	0.071728
0.551000	0.026293
0.552000	-0.015052
0.553000	-0.046448
0.554000	-0.068183
0.555000	-0.076330
0.556000	-0.064480
0.557000	-0.037142
0.558000	-0.005392
0.559000	0.037885
0.560000	0.081581
0.561000	0.116454
0.562000	0.143728
0.563000	0.156060
0.564000	0.153130
0.565000	0.129978
0.566000	0.099355
0.567000	0.060329
0.568000	0.013541
0.569000	-0.022620
0.570000	-0.052180
0.571000	-0.069632
0.572000	-0.070920
0.573000	-0.052663
0.574000	-0.024552
0.575000	0.010160
0.576000	0.055531
0.577000	0.097842
0.578000	0.130429
0.579000	0.152454
0.580000	0.161116
0.581000	0.150940
0.582000	0.122733
0.583000	0.090565
0.584000	0.048189
0.585000	0.003785
0.586000	-0.028577
0.587000	-0.056494
0.588000	-0.068570
0.589000	-0.064384
0.590000	-0.041521
0.591000	-0.011188
0.592000	0.028643
0.593000	0.074851
0.594000	0.112622
0.595000	0.142794
0.596000	0.160697
0.597000	0.163016
0.598000	0.145016
0.599000	0.116196
0.600000	0.082547
0.601000	0.037016
0.602000	-0.003557
0.603000	-0.036079
0.604000	-0.058169
0.605000	-0.065575
0.606000	-0.055432
0.607000	-0.028029
0.608000	0.005137
0.609000	0.047899
0.610000	0.092046
0.611000	0.125921
0.612000	0.153806
0.613000	0.167073
0.614000	0.163016
0.615000	0.140701
0.616000	0.110851
0.617000	0.072339
0.618000	0.025745
0.619000	-0.011510
0.620000	-0.042294
0.621000	-0.058394
0.622000	-0.061357
0.623000	-0.043292
0.624000	-0.013990
0.625000	0.020368
0.626000	0.065191
0.627000	0.107019
0.628000	0.139767
0.629000	0.162661
0.630000	0.170422
0.631000	0.160923
0.632000	0.134164
0.633000	0.101642
0.634000	0.058847
0.635000	0.014153
0.636000	-0.019883
0.637000	-0.046319
0.638000	-0.060262
0.639000	-0.055625
0.640000	-0.032956
0.641000	-0.002398
0.642000	0.035985
0.643000	0.082064
0.644000	0.119932
0.645000	0.150876
0.646000	0.167974
0.647000	0.171130
0.648000	0.154128
0.649000	0.124665
0.650000	0.090565
0.651000	0.044583
0.652000	0.003624
0.653000	-0.028673
0.654000	-0.051761
0.655000	-0.059392
0.656000	-0.049153
0.657000	-0.022620
0.658000	0.009806
0.659000	0.052246
0.660000	0.097166
0.661000	0.131588
0.662000	0.158701
0.663000	0.172515
0.664000	0.168941
0.665000	0.146336
0.666000	0.115971
0.667000	0.077169
0.668000	0.031026
0.669000	-0.006262
0.670000	-0.037464
0.671000	-0.054562
0.672000	-0.057010
0.673000	-0.039943
0.674000	-0.010770
0.675000	0.023008
0.676000	0.068572
0.677000	0.110722
0.678000	0.143341
0.679000	0.166139
0.680000	0.174833
0.681000	0.164819
0.682000	0.138157
0.683000	0.106375
0.684000	0.063645
0.685000	0.018726
0.686000	-0.015568
0.687000	-0.042777
0.688000	-0.055593
0.689000	-0.052598
0.690000	-0.029897
0.691000	0.001305
0.692000	0.039720
0.693000	0.086218
0.694000	0.123216
0.695000	0.154161
0.696000	0.173255
0.697000	0.175381
0.698000	0.158701
0.699000	0.130107
0.700000	0.096329
0.701000	0.050733
0.702000	0.008647
0.703000	-0.023875
0.704000	-0.045997
0.705000	-0.054820
0.706000	-0.045031
0.707000	-0.017339
0.708000	0.014185
0.709000	0.056368
0.710000	0.101320
0.711000	0.136289
0.712000	0.164690
0.713000	0.177280
0.714000	0.175091
0.715000	0.153227
0.716000	0.122572
0.717000	0.083771
0.718000	0.037370
0.719000	-0.000434
0.720000	-0.030251
0.721000	-0.048541
0.722000	-0.051214
0.723000	-0.033407
0.724000	-0.004813
0.725000	0.028386
0.726000	0.074110
0.727000	0.116776
0.728000	0.149620
0.729000	0.172515
0.730000	0.181627
0.731000	0.172998
0.732000	0.145853
0.733000	0.113813
0.734000	0.071631
0.735000	0.026422
0.736000	-0.007002
0.737000	-0.034759
0.738000	-0.048026
0.739000	-0.044355
0.740000	-0.022587
0.741000	0.007778
0.742000	0.046676
0.743000	0.093559
0.744000	0.131749
0.745000	0.162339
0.746000	0.181273
0.747000	0.184976
0.748000	0.167974
0.749000	0.139252
0.750000	0.105216
0.751000	0.060618
0.752000	0.018597
0.753000	-0.013571
0.754000	-0.036981
0.755000	-0.044709
0.756000	-0.035886
0.757000	-0.009224
0.758000	0.023298
0.759000	0.065545
0.760000	0.110915
0.761000	0.144855
0.762000	0.173513
0.763000	0.187552
0.764000	0.184590
0.765000	0.162533
0.766000	0.132393
0.767000	0.094558
0.768000	0.048414
0.769000	0.009871
0.770000	-0.021332
0.771000	-0.038333
0.772000	-0.042197
0.773000	-0.025196
0.774000	0.004042
0.775000	0.037885
0.776000	0.082579
0.777000	0.124182
0.778000	0.157509
0.779000	0.181756
0.780000	0.190032
0.781000	0.181499
0.782000	0.155738
0.783000	0.123280
0.784000	0.081677
0.785000	0.035309
0.786000	0.001595
0.787000	-0.025614
0.788000	-0.040040
0.789000	-0.036659
0.790000	-0.014280
0.791000	0.015538
0.792000	0.053438
0.793000	0.100000
0.794000	0.137996
0.795000	0.170035
0.796000	0.188196
0.797000	0.192093
0.798000	0.175928
0.799000	0.146948
0.800000	0.112815
0.801000	0.067831
0.802000	0.025134
0.803000	-0.006455
0.804000	-0.029929
0.805000	-0.038494
0.806000	-0.028995
0.807000	-0.003332
0.808000	0.028772
0.809000	0.070890
0.810000	0.115939
0.811000	0.151101
0.812000	0.179470
0.813000	0.193574
0.814000	0.191706
0.815000	0.169713
0.816000	0.138833
0.817000	0.101545
0.818000	0.054951
0.819000	0.017824
0.820000	-0.013378
0.821000	-0.031442
0.822000	-0.034147
0.823000	-0.018079
0.824000	0.010643
0.825000	0.044615
0.826000	0.089695
0.827000	0.132779
0.828000	0.165592
0.829000	0.189420
0.830000	0.199305
0.831000	0.190740
0.832000	0.164400
0.833000	0.132715
0.834000	0.091209
0.835000	0.045935
0.836000	0.012221
0.837000	-0.015986
0.838000	-0.029607
0.839000	-0.026580
0.840000	-0.005231
0.841000	0.025552
0.842000	0.063677
0.843000	0.110593
0.844000	0.148461
0.845000	0.180178
0.846000	0.199499
0.847000	0.203170
0.848000	0.187102
0.849000	0.158443
0.850000	0.125760
0.851000	0.080776
0.852000	0.038561
0.853000	0.005685
0.854000	-0.017596
0.855000	-0.026451
0.856000	-0.018047
0.857000	0.008486
0.858000	0.040719
0.859000	0.082740
0.860000	0.127756
0.861000	0.162597
0.862000	0.191738
0.863000	0.205520
0.864000	0.203524
0.865000	0.182754
0.866000	0.152679
0.867000	0.115745
0.868000	0.068508
0.869000	0.030543
0.870000	-0.000144
0.871000	-0.018949
0.872000	-0.022394
0.873000	-0.005875
0.874000	0.023073
0.875000	0.056304
0.876000	0.100772
0.877000	0.143824
0.878000	0.177184
0.879000	0.201109
0.880000	0.210125
0.881000	0.202976
0.882000	0.177023
0.883000	0.145563
0.884000	0.103542
0.885000	0.057881
0.886000	0.023588
0.887000	-0.003976
0.888000	-0.018595
0.889000	-0.015471
0.890000	0.005942
0.891000	0.036050
0.892000	0.073016
0.893000	0.119771
0.894000	0.159023
0.895000	0.190289
0.896000	0.208901
0.897000	0.214214
0.898000	0.198822
0.899000	0.169359
0.900000	0.136547
0.901000	0.091209
0.902000	0.049735
0.903000	0.018243
0.904000	-0.006841
0.905000	-0.015020
0.906000	-0.006680
0.907000	0.018855
0.908000	0.050701
0.909000	0.092593
0.910000	0.138801
0.911000	0.173932
0.912000	0.202203
0.913000	0.217144
0.914000	0.215567
0.915000	0.193831
0.916000	0.163885
0.917000	0.127016
0.918000	0.080647
0.919000	0.043262
0.920000	0.011062
0.921000	-0.006938
0.922000	-0.010673
0.923000	0.004203
0.924000	0.033635
0.925000	0.067381
0.926000	0.112300
0.927000	0.155191
0.928000	0.187230
0.929000	0.212701
0.930000	0.222039
0.931000	0.214118
0.932000	0.188905
0.933000	0.158186
0.934000	0.116711
0.935000	0.071245
0.936000	0.036114
0.937000	0.008293
0.938000	-0.005328
0.939000	-0.003911
0.940000	0.018372
0.941000	0.048865
0.942000	0.085928
0.943000	0.132586
0.944000	0.171259
0.945000	0.203331
0.946000	0.222844
0.947000	0.227481
0.948000	0.212765
0.949000	0.184654
0.950000	0.151327
0.951000	0.106343
0.952000	0.063710
0.953000	0.032153
0.954000	0.007810
0.955000	-0.002044
0.956000	0.006522
0.957000	0.032411
0.958000	0.063677
0.959000	0.105184
0.960000	0.151037
0.961000	0.186264
0.962000	0.215341
0.963000	0.229606
0.964000	0.228415
0.965000	0.207549
0.966000	0.177957
0.967000	0.140636
0.968000	0.094525
0.969000	0.055949
0.970000	0.024554
0.971000	0.006071
0.972000	0.001660
0.973000	0.017051
0.974000	0.045838
0.975000	0.078715
0.976000	0.123763
0.977000	0.166783
0.978000	0.199241
0.979000	0.224035
0.980000	0.234243
0.981000	0.226933
0.982000	0.201656
0.983000	0.170035
0.984000	0.128787
0.985000	0.083223
0.986000	0.048736
0.987000	0.020432
0.988000	0.006168
0.989000	0.008357
0.990000	0.029255
0.991000	0.059202
0.992000	0.095974
0.993000	0.143116
0.994000	0.181788
0.995000	0.213474
0.996000	0.233116
0.997000	0.238332
0.998000	0.223520
0.999000	0.195119
1.000000	0.161792
1.001000	0.117420
1.002000	0.075302
1.003000	0.042812
1.004000	0.018436
1.005000	0.008583
1.006000	0.016150
1.007000	0.041491
1.008000	0.073080
1.009000	0.114812
1.010000	0.160150
1.011000	0.194926
1.012000	0.224068
1.013000	0.239620
1.014000	0.237946
1.015000	0.217756
1.016000	0.188035
1.017000	0.152293
1.018000	0.105989
1.019000	0.067509
1.020000	0.035406
1.021000	0.017534
1.022000	0.012350
1.023000	0.027033
1.024000	0.056400
1.025000	0.089309
1.026000	0.134067
1.027000	0.175767
1.028000	0.208869
1.029000	0.234694
1.030000	0.244354
1.031000	0.237399
1.032000	0.212636
1.033000	0.181241
1.034000	0.140250
1.035000	0.093881
1.036000	0.058654
1.037000	0.031252
1.038000	0.016053
1.039000	0.017599
1.040000	0.039141
1.041000	0.068797
1.042000	0.104411
1.043000	0.151005
1.044000	0.189871
1.045000	0.222941
1.046000	0.241713
1.047000	0.246865
1.048000	0.233889
1.049000	0.204586
1.050000	0.171774
1.051000	0.126822
1.052000	0.083932
1.053000	0.052375
1.054000	0.027613
1.055000	0.016633
1.056000	0.025359
1.057000	0.050282
1.058000	0.080647
1.059000	0.122089
1.060000	0.167781
1.061000	0.204425
1.062000	0.233019
1.063000	0.247735
1.064000	0.247606
1.065000	0.227062
1.066000	0.196504
1.067000	0.160697
1.068000	0.114232
1.069000	0.076107
1.070000	0.044583
1.071000	0.024522
1.072000	0.020175
1.073000	0.033280
1.074000	0.061488
1.075000	0.094139
1.076000	0.138865
1.077000	0.181434
1.078000	0.214021
1.079000	0.239298
1.080000	0.250182
1.081000	0.243130
1.082000	0.217434
1.083000	0.186554
1.084000	0.146143
1.085000	0.100289
1.086000	0.064869
1.087000	0.035856
1.088000	0.021398
1.089000	0.022107
1.090000	0.042361
1.091000	0.072339
1.092000	0.108919
1.093000	0.154579
1.094000	0.193960
1.095000	0.226096
1.096000	0.246060
1.097000	0.251180
1.098000	0.237785
1.099000	0.209159
1.100000	0.177184
1.101000	0.132876
1.102000	0.089695
1.103000	0.057559
1.104000	0.032314
1.105000	0.021720
1.106000	0.028708
1.107000	0.053760
1.108000	0.084672
1.109000	0.125728
1.110000	0.171066
1.111000	0.206583
1.112000	0.235756
1.113000	0.251084
1.114000	0.250633
1.115000	0.230411
1.116000	0.201270
1.117000	0.165527
1.118000	0.118998
1.119000	0.079713
1.120000	0.048189
1.121000	0.028676
1.122000	0.023491
1.123000	0.037112
1.124000	0.065803
1.125000	0.097939
1.126000	0.141409
1.127000	0.184268
1.128000	0.217434
1.129000	0.243388
1.130000	0.253885
1.131000	0.248121
1.132000	0.223102
1.133000	0.192737
1.134000	0.151713
1.135000	0.106021
1.136000	0.070601
1.137000	0.042393
1.138000	0.026905
1.139000	0.027903
1.140000	0.048382
1.141000	0.077427
1.142000	0.113491
1.143000	0.158830
1.144000	0.199273
1.145000	0.231313
1.146000	0.250891
1.147000	0.257492
1.148000	0.244740
1.149000	0.215695
1.150000	0.183173
1.151000	0.139316
1.152000	0.096554
1.153000	0.064998
1.154000	0.039012
1.155000	0.028740
1.156000	0.035470
1.157000	0.059652
1.158000	0.090404
1.159000	0.131395
1.160000	0.177409
1.161000	0.213216
1.162000	0.241842
1.163000	0.258103
1.164000	0.258490
1.165000	0.237624
1.166000	0.208225
1.167000	0.172611
1.168000	0.127370
1.169000	0.088279
1.170000	0.055982
1.171000	0.036307
1.172000	0.031284
1.173000	0.044164
1.174000	0.072017
1.175000	0.105538
1.176000	0.149298
1.177000	0.192930
1.178000	0.224712
1.179000	0.251309
1.180000	0.262579
1.181000	0.256107
1.182000	0.231216
1.183000	0.201656
1.184000	0.161406
1.185000	0.116261
1.186000	0.080293
1.187000	0.050733
1.188000	0.036533
1.189000	0.036243
1.190000	0.056754
1.191000	0.086733
1.192000	0.122894
1.193000	0.168264
1.194000	0.208064
1.195000	0.240522
1.196000	0.260937
1.197000	0.266959
1.198000	0.254658
1.199000	0.227223
1.200000	0.195087
1.201000	0.150940
1.202000	0.107695
1.203000	0.075495
1.204000	0.050508
1.205000	0.039076
1.206000	0.045935
1.207000	0.070665
1.208000	0.101771
1.209000	0.141345
1.210000	0.187295
1.211000	0.223166
1.212000	0.253209
1.213000	0.268858
1.214000	0.269502
1.215000	0.249989
1.216000	0.220493
1.217000	0.184364
1.218000	0.139220
1.219000	0.099581
1.220000	0.067670
1.221000	0.047577
1.222000	0.041717
1.223000	0.054919
1.224000	0.082901
1.225000	0.115327
1.226000	0.158701
1.227000	0.202332
1.228000	0.235177
1.229000	0.261291
1.230000	0.272400
1.231000	0.266894
1.232000	0.242744
1.233000	0.211767
1.234000	0.171678
1.235000	0.125856
1.236000	0.090565
1.237000	0.061101
1.238000	0.045549
1.239000	0.045710
1.240000	0.065287
1.241000	0.094654
1.242000	0.129527
1.243000	0.175574
1.244000	0.215631
1.245000	0.247799
1.246000	0.268214
1.247000	0.274526
1.248000	0.262676
1.249000	0.234404
1.250000	0.201817
1.251000	0.159087
1.252000	0.115520
1.253000	0.083030
1.254000	0.057012
1.255000	0.046321
1.256000	0.051924
1.257000	0.075881
1.258000	0.106955
1.259000	0.147141
1.260000	0.193091
1.261000	0.228221
1.262000	0.258007
1.263000	0.274976
1.264000	0.275041
1.265000	0.255721
1.266000	0.226708
1.267000	0.191835
1.268000	0.146626
1.269000	0.106794
1.270000	0.074787
1.271000	0.055112
1.272000	0.048833
1.273000	0.061262
1.274000	0.089373
1.275000	0.122121
1.276000	0.165302
1.277000	0.208611
1.278000	0.241552
1.279000	0.268697
1.280000	0.279871
1.281000	0.274719
1.282000	0.251180
1.283000	0.220783
1.284000	0.181434
1.285000	0.135420
1.286000	0.099549
1.287000	0.070858
1.288000	0.055144
1.289000	0.054211
1.290000	0.074304
1.291000	0.103703
1.292000	0.138415
1.293000	0.183463
1.294000	0.224132
1.295000	0.256783
1.296000	0.277746
1.297000	0.284154
1.298000	0.273334
1.299000	0.245835
1.300000	0.213216
1.301000	0.170744
1.302000	0.126372
1.303000	0.094686
1.304000	0.069989
1.305000	0.058075
1.306000	0.065030
1.307000	0.089341
1.308000	0.119449
1.309000	0.159635
1.310000	0.205907
1.311000	0.243227
1.312000	0.273560
1.313000	0.289563
1.314000	0.291785
1.315000	0.273238
1.316000	0.243839
1.317000	0.209449
1.318000	0.165076
1.319000	0.125921
1.320000	0.095298
1.321000	0.074207
1.322000	0.068926
1.323000	0.081581
1.324000	0.109144
1.325000	0.142182
1.326000	0.185652
1.327000	0.230830
1.328000	0.263964
1.329000	0.290497
1.330000	0.303152
1.331000	0.298676
1.332000	0.275298
1.333000	0.244998
1.334000	0.206422
1.335000	0.160890
1.336000	0.125631
1.337000	0.096200
1.338000	0.080550
1.339000	0.080325
1.340000	0.099742
1.341000	0.129270
1.342000	0.164915
1.343000	0.210286
1.344000	0.251019
1.345000	0.283284
1.346000	0.304987
1.347000	0.312458
1.348000	0.300930
1.349000	0.273688
1.350000	0.241778
1.351000	0.199305
1.352000	0.155513
1.353000	0.122797
1.354000	0.096779
1.355000	0.085606
1.356000	0.090983
1.357000	0.114715
1.358000	0.146078
1.359000	0.185717
1.360000	0.231635
1.361000	0.267506
1.362000	0.298515
1.363000	0.315291
1.364000	0.316579
1.365000	0.297935
1.366000	0.269535
1.367000	0.235563
1.368000	0.190128
1.369000	0.150425
1.370000	0.118611
1.371000	0.098454
1.372000	0.091402
1.373000	0.103831
1.374000	0.131974
1.375000	0.164561
1.376000	0.207034
1.377000	0.251631
1.378000	0.285635
1.379000	0.312554
1.380000	0.324565
1.381000	0.320476
1.382000	0.297646
1.383000	0.267570
1.384000	0.228415
1.385000	0.182497
1.386000	0.146658
1.387000	0.117774
1.388000	0.101255
1.389000	0.100708
1.390000	0.120672
1.391000	0.149652
1.392000	0.184364
1.393000	0.230218
1.394000	0.271080
1.395000	0.304247
1.396000	0.325596
1.397000	0.333903
1.398000	0.323341
1.399000	0.295810
1.400000	0.264125
1.401000	0.221427
1.402000	0.178118
1.403000	0.146400
1.404000	0.120060
1.405000	0.108629
1.406000	0.114554
1.407000	0.137062
1.408000	0.168264
1.409000	0.207645
1.410000	0.254529
1.411000	0.291560
1.412000	0.321699
1.413000	0.338669
1.414000	0.340987
1.415000	0.322762
1.416000	0.293395
1.417000	0.259907
1.418000	0.214858
1.419000	0.175831
1.420000	0.143760
1.421000	0.122282
1.422000	0.116357
1.423000	0.127627
1.424000	0.155320
1.425000	0.188068
1.426000	0.231345
1.427000	0.275781
1.428000	0.309399
1.429000	0.336318
1.430000	0.349488
1.431000	0.344980
1.432000	0.322118
1.433000	0.292622
1.434000	0.254626
1.435000	0.209127
1.436000	0.172837
1.437000	0.142568
1.438000	0.127724
1.439000	0.126114
1.440000	0.144919
1.441000	0.175284
1.442000	0.209352
1.443000	0.255399
1.444000	0.295875
1.445000	0.328397
1.446000	0.351131
1.447000	0.358633
1.448000	0.348104
1.449000	0.321023
1.450000	0.289853
1.451000	0.247220
1.452000	0.203459
1.453000	0.170325
1.454000	0.144661
1.455000	0.132522
1.456000	0.137674
1.457000	0.161180
1.458000	0.191932
1.459000	0.230733
1.460000	0.277166
1.461000	0.314358
1.462000	0.344819
1.463000	0.362272
1.464000	0.363979
1.465000	0.347202
1.466000	0.318254
1.467000	0.284765
1.468000	0.239459
1.469000	0.199016
1.470000	0.167395
1.471000	0.146593
1.472000	0.138962
1.473000	0.150779
1.474000	0.178923
1.475000	0.210286
1.476000	0.253338
1.477000	0.297291
1.478000	0.331263
1.479000	0.358794
1.480000	0.371256
1.481000	0.368293
1.482000	0.345689
1.483000	0.315485
1.484000	0.276651
1.485000	0.231474
1.486000	0.194926
1.487000	0.165463
1.488000	0.148654
1.489000	0.147817
1.490000	0.166139
1.491000	0.195184
1.492000	0.229445
1.493000	0.275620
1.494000	0.317513
1.495000	0.349907
1.496000	0.372125
1.497000	0.381399
1.498000	0.371578
1.499000	0.344690
1.500000	0.313810
1.501000	0.272433
1.502000	0.229670
1.503000	0.198114
1.504000	0.171774
1.505000	0.160407
1.506000	0.165559
1.507000	0.187971
1.508000	0.218432
1.509000	0.258200
1.510000	0.304536
1.511000	0.341438
1.512000	0.371513
1.513000	0.389707
1.514000	0.391671
1.515000	0.373381
1.516000	0.345238
1.517000	0.311524
1.518000	0.266862
1.519000	0.225935
1.520000	0.193670
1.521000	0.171967
1.522000	0.164722
1.523000	0.174704
1.524000	0.202461
1.525000	0.234468
1.526000	0.277295
1.527000	0.321120
1.528000	0.354254
1.529000	0.381367
1.530000	0.394698
1.531000	0.390319
1.532000	0.367682
1.533000	0.338154
1.534000	0.299191
1.535000	0.253145
1.536000	0.215470
1.537000	0.185749
1.538000	0.169327
1.539000	0.166493
1.540000	0.184847
1.541000	0.213474
1.542000	0.247284
1.543000	0.291946
1.544000	0.332969
1.545000	0.365717
1.546000	0.388226
1.547000	0.395632
1.548000	0.386004
1.549000	0.359084
1.550000	0.326626
1.551000	0.284250
1.552000	0.239814
1.553000	0.206454
1.554000	0.179985
1.555000	0.166558
1.556000	0.170647
1.557000	0.193703
1.558000	0.222780
1.559000	0.261839
1.560000	0.307112
1.561000	0.344111
1.562000	0.374927
1.563000	0.391832
1.564000	0.394086
1.565000	0.376440
1.566000	0.347717
1.567000	0.313617
1.568000	0.268118
1.569000	0.226901
1.570000	0.195152
1.571000	0.172483
1.572000	0.164529
1.573000	0.174801
1.574000	0.201141
1.575000	0.232794
1.576000	0.274622
1.577000	0.318994
1.578000	0.352741
1.579000	0.379467
1.580000	0.392476
1.581000	0.389449
1.582000	0.366619
1.583000	0.335964
1.584000	0.297420
1.585000	0.251116
1.586000	0.214504
1.587000	0.184332
1.588000	0.166493
1.589000	0.164593
1.590000	0.181563
1.591000	0.209449
1.592000	0.243066
1.593000	0.288211
1.594000	0.329588
1.595000	0.361241
1.596000	0.383428
1.597000	0.391993
1.598000	0.381914
1.599000	0.354222
1.600000	0.322472
1.601000	0.280354
1.602000	0.236143
1.603000	0.202300
1.604000	0.174125
1.605000	0.162082
1.606000	0.164883
1.607000	0.186683
1.608000	0.217048
1.609000	0.255495
1.610000	0.300994
1.611000	0.337381
1.612000	0.367424
1.613000	0.385810
1.614000	0.387453
1.615000	0.370064
1.616000	0.341309
1.617000	0.307917
1.618000	0.262837
1.619000	0.220912
1.620000	0.188132
1.621000	0.166010
1.622000	0.157445
1.623000	0.166751
1.624000	0.193831
1.625000	0.225549
1.626000	0.266540
1.627000	0.310204
1.628000	0.343853
1.629000	0.371707
1.630000	0.384168
1.631000	0.380465
1.632000	0.358150
1.633000	0.327495
1.634000	0.289628
1.635000	0.243323
1.636000	0.205391
1.637000	0.175445
1.638000	0.157896
1.639000	0.154837
1.640000	0.172450
1.641000	0.200593
1.642000	0.233567
1.643000	0.278261
1.644000	0.320411
1.645000	0.353481
1.646000	0.376150
1.647000	0.384394
1.648000	0.375861
1.649000	0.348683
1.650000	0.317159
1.651000	0.275137
1.652000	0.230153
1.653000	0.196601
1.654000	0.168908
1.655000	0.155062
1.656000	0.158411
1.657000	0.180178
1.658000	0.210254
1.659000	0.248250
1.660000	0.294071
1.661000	0.331649
1.662000	0.361853
1.663000	0.379725
1.664000	0.383170
1.665000	0.366490
1.666000	0.337574
1.667000	0.303603
1.668000	0.258780
1.669000	0.217177
1.670000	0.184944
1.671000	0.162178
1.672000	0.153774
1.673000	0.163595
1.674000	0.189903
1.675000	0.221910
1.676000	0.263255
1.677000	0.308143
1.678000	0.342147
1.679000	0.369710
1.680000	0.383041
1.681000	0.380240
1.682000	0.357603
1.683000	0.327045
1.684000	0.288855
1.685000	0.242454
1.686000	0.205939
1.687000	0.176121
1.688000	0.158153
1.689000	0.154998
1.690000	0.169681
1.691000	0.197116
1.692000	0.229509
1.693000	0.274751
1.694000	0.318125
1.695000	0.350519
1.696000	0.374154
1.697000	0.384265
1.698000	0.374862
1.699000	0.348780
1.700000	0.317900
1.701000	0.276812
1.702000	0.232987
1.703000	0.199499
1.704000	0.171839
1.705000	0.159506
1.706000	0.161760
1.707000	0.183914
1.708000	0.214214
1.709000	0.251953
1.710000	0.297646
1.711000	0.334193
1.712000	0.364816
1.713000	0.383524
1.714000	0.385038
1.715000	0.368519
1.716000	0.340569
1.717000	0.306275
1.718000	0.262450
1.719000	0.219978
1.720000	0.187778
1.721000	0.166139
1.722000	0.156189
1.723000	0.165753
1.724000	0.192286
1.725000	0.223585
1.726000	0.264447
1.727000	0.308658
1.728000	0.343113
1.729000	0.371835
1.730000	0.384297
1.731000	0.382268
1.732000	0.361177
1.733000	0.331102
1.734000	0.293170
1.735000	0.246576
1.736000	0.209352
1.737000	0.179438
1.738000	0.160955
1.739000	0.157831
1.740000	0.174543
1.741000	0.202300
1.742000	0.235467
1.743000	0.279742
1.744000	0.322633
1.745000	0.354930
1.746000	0.377567
1.747000	0.387485
1.748000	0.378920
1.749000	0.352580
1.750000	0.320186
1.751000	0.278744
1.752000	0.233953
1.753000	0.200690
1.754000	0.172161
1.755000	0.158250
1.756000	0.161277
1.757000	0.182175
1.758000	0.211928
1.759000	0.249087
1.760000	0.294973
1.761000	0.331842
1.762000	0.363206
1.763000	0.381914
1.764000	0.385199
1.765000	0.369581
1.766000	0.341213
1.767000	0.308851
1.768000	0.264382
1.769000	0.222458
1.770000	0.190386
1.771000	0.167008
1.772000	0.157960
1.773000	0.166719
1.774000	0.192640
1.775000	0.224164
1.776000	0.265155
1.777000	0.310204
1.778000	0.344401
1.779000	0.372415
1.780000	0.385843
1.781000	0.383492
1.782000	0.362787
1.783000	0.332293
1.784000	0.295166
1.785000	0.248926
1.786000	0.212250
1.787000	0.181756
1.788000	0.163853
1.789000	0.160697
1.790000	0.176701
1.791000	0.205230
1.792000	0.238043
1.793000	0.283252
1.794000	0.325177
1.795000	0.357088
1.796000	0.380819
1.797000	0.390608
1.798000	0.381818
1.799000	0.355864
1.800000	0.324630
1.801000	0.283316
1.802000	0.238590
1.803000	0.204007
1.804000	0.175992
1.805000	0.162661
1.806000	0.164529
1.807000	0.185975
1.808000	0.216565
1.809000	0.253531
1.810000	0.299384
1.811000	0.335932
1.812000	0.368004
1.813000	0.387034
1.814000	0.390093
1.815000	0.375088
1.816000	0.346622
1.817000	0.314293
1.818000	0.269116
1.819000	0.226772
1.820000	0.194926
1.821000	0.171903
1.822000	0.161856
1.823000	0.171162
1.824000	0.197084
1.825000	0.227771
1.826000	0.268214
1.827000	0.313037
1.828000	0.348780
1.829000	0.376762
1.830000	0.389900
1.831000	0.388837
1.832000	0.368390
1.833000	0.337703
1.834000	0.300286
1.835000	0.253885
1.836000	0.216983
1.837000	0.186876
1.838000	0.166783
1.839000	0.163982
1.840000	0.179663
1.841000	0.207259
1.842000	0.239620
1.843000	0.284830
1.844000	0.327270
1.845000	0.359825
1.846000	0.382751
1.847000	0.393410
1.848000	0.385617
1.849000	0.358730
1.850000	0.327721
1.851000	0.286633
1.852000	0.242003
1.853000	0.208289
1.854000	0.179502
1.855000	0.166590
1.856000	0.168618
1.857000	0.188679
1.858000	0.218658
1.859000	0.255946
1.860000	0.302637
1.861000	0.340021
1.862000	0.370451
1.863000	0.390641
1.864000	0.394344
1.865000	0.379499
1.866000	0.351195
1.867000	0.319252
1.868000	0.274654
1.869000	0.232794
1.870000	0.200529
1.871000	0.176830
1.872000	0.167524
1.873000	0.175220
1.874000	0.201592
1.875000	0.232826
1.876000	0.274139
1.877000	0.318608
1.878000	0.353385
1.879000	0.382204
1.880000	0.396372
1.881000	0.394988
1.882000	0.374637
1.883000	0.344980
1.884000	0.308272
1.885000	0.262450
1.886000	0.224454
1.887000	0.194057
1.888000	0.174930
1.889000	0.170937
1.890000	0.186554
1.891000	0.214568
1.892000	0.247059
1.893000	0.291656
1.894000	0.334064
1.895000	0.366780
1.896000	0.391349
1.897000	0.401396
1.898000	0.394311
1.899000	0.368648
1.900000	0.338089
1.901000	0.297034
1.902000	0.252565
1.903000	0.218046
1.904000	0.189871
1.905000	0.176636
1.906000	0.177989
1.907000	0.198919
1.908000	0.228962
1.909000	0.265864
1.910000	0.312071
1.911000	0.350422
1.912000	0.381689
1.913000	0.401492
1.914000	0.405292
1.915000	0.391607
1.916000	0.364075
1.917000	0.331488
1.918000	0.286955
1.919000	0.244772
1.920000	0.213731
1.921000	0.189903
1.922000	0.179728
1.923000	0.188164
1.924000	0.213892
1.925000	0.244579
1.926000	0.285699
1.927000	0.330780
1.928000	0.366619
1.929000	0.395020
1.930000	0.409220
1.931000	0.409252
1.932000	0.388644
1.933000	0.359020
1.934000	0.322504
1.935000	0.276715
1.936000	0.239331
1.937000	0.209159
1.938000	0.189356
1.939000	0.185975
1.940000	0.200626
1.941000	0.228350
1.942000	0.261259
1.943000	0.306082
1.944000	0.348909
1.945000	0.380658
1.946000	0.405034
1.947000	0.416208
1.948000	0.408544
1.949000	0.382816
1.950000	0.352290
1.951000	0.311846
1.952000	0.267699
1.953000	0.232987
1.954000	0.203846
1.955000	0.191062
1.956000	0.191932
1.957000	0.212057
1.958000	0.242357
1.959000	0.279227
1.960000	0.325177
1.961000	0.362851
1.962000	0.394022
1.963000	0.414598
1.964000	0.418784
1.965000	0.404648
1.966000	0.377310
1.967000	0.345206
1.968000	0.301027
1.969000	0.258812
1.970000	0.226161
1.971000	0.202654
1.972000	0.192189
1.973000	0.199402
1.974000	0.225420
1.975000	0.256461
1.976000	0.296841
1.977000	0.340923
1.978000	0.376215
1.979000	0.406419
1.980000	0.420168
1.981000	0.419363
1.982000	0.400140
1.983000	0.370773
1.984000	0.334547
1.985000	0.288565
1.986000	0.250246
1.987000	0.219688
1.988000	0.200754
1.989000	0.195860
1.990000	0.210543
1.991000	0.238268
1.992000	0.270082
1.993000	0.314197
1.994000	0.356894
1.995000	0.389578
1.996000	0.414018
1.997000	0.424709
1.998000	0.418301
1.999000	0.392701
2.000000	0.362465
2.001000	0.321635
2.002000	0.277488
2.003000	0.243098
2.004000	0.214504
2.005000	0.200271
2.006000	0.201366
2.007000	0.221331
2.008000	0.250536
2.009000	0.286923
2.010000	0.332969
2.011000	0.371320
2.012000	0.402748
2.013000	0.422584
2.014000	0.427832
2.015000	0.414211
2.016000	0.386519
2.017000	0.354447
2.018000	0.310848
2.019000	0.268601
2.020000	0.237044
2.021000	0.212443
2.022000	0.201946
2.023000	0.209255
2.024000	0.234694
2.025000	0.265220
2.026000	0.305631
2.027000	0.350164
2.028000	0.385907
2.029000	0.414888
2.030000	0.429861
2.031000	0.429764
2.032000	0.409993
2.033000	0.380948
2.034000	0.345302
2.035000	0.300061
2.036000	0.262032
2.037000	0.231313
2.038000	0.211638
2.039000	0.207452
2.040000	0.221105
2.041000	0.248636
2.042000	0.281417
2.043000	0.325370
2.044000	0.368551
2.045000	0.400108
2.046000	0.425321
2.047000	0.436784
2.048000	0.429990
2.049000	0.405227
2.050000	0.375216
2.051000	0.335803
2.052000	0.291366
2.053000	0.256332
2.054000	0.227384
2.055000	0.214053
2.056000	0.213957
2.057000	0.234372
2.058000	0.263803
2.059000	0.299835
2.060000	0.344884
2.061000	0.383073
2.062000	0.414791
2.063000	0.435367
2.064000	0.440036
2.065000	0.427542
2.066000	0.400913
2.067000	0.369034
2.068000	0.325435
2.069000	0.282061
2.070000	0.250311
2.071000	0.226772
2.072000	0.215534
2.073000	0.222136
2.074000	0.247735
2.075000	0.278132
2.076000	0.317288
2.077000	0.361918
2.078000	0.397467
2.079000	0.427478
2.080000	0.441550
2.081000	0.442322
2.082000	0.423228
2.083000	0.394150
2.084000	0.358182
2.085000	0.312844
2.086000	0.274622
2.087000	0.245030
2.088000	0.224518
2.089000	0.219527
2.090000	0.233856
2.091000	0.260325
2.092000	0.292171
2.093000	0.335030
2.094000	0.379177
2.095000	0.411571
2.096000	0.436011
2.097000	0.447636
2.098000	0.442161
2.099000	0.417335
2.100000	0.386648
2.101000	0.347331
2.102000	0.302572
2.103000	0.269052
2.104000	0.239685
2.105000	0.224679
2.106000	0.225420
2.107000	0.244837
2.108000	0.273849
2.109000	0.309624
2.110000	0.354866
2.111000	0.393539
2.112000	0.424548
2.113000	0.444963
2.114000	0.450984
2.115000	0.437621
2.116000	0.410895
2.117000	0.378984
2.118000	0.336640
2.119000	0.293749
2.120000	0.261645
2.121000	0.237238
2.122000	0.227062
2.123000	0.232568
2.124000	0.257331
2.125000	0.288340
2.126000	0.327592
2.127000	0.372512
2.128000	0.407063
2.129000	0.436881
2.130000	0.452272
2.131000	0.452820
2.132000	0.433822
2.133000	0.405131
2.134000	0.370129
2.135000	0.325467
2.136000	0.286858
2.137000	0.256300
2.138000	0.236980
2.139000	0.231441
2.140000	0.244515
2.141000	0.272658
2.142000	0.305631
2.143000	0.349424
2.144000	0.393925
2.145000	0.427349
2.146000	0.453850
2.147000	0.466441
2.148000	0.461739
2.149000	0.439457
2.150000	0.410154
2.151000	0.372834
2.152000	0.329234
2.153000	0.296132
2.154000	0.268601
2.155000	0.255173
2.156000	0.256526
2.157000	0.277391
2.158000	0.308433
2.159000	0.344368
2.160000	0.390705
2.161000	0.430537
2.162000	0.464090
2.163000	0.486470
2.164000	0.493715
2.165000	0.483121
2.166000	0.458230
2.167000	0.427800
2.168000	0.387034
2.169000	0.345592
2.170000	0.315291
2.171000	0.293137
2.172000	0.282962
2.173000	0.291238
2.174000	0.316515
2.175000	0.347878
2.176000	0.388161
2.177000	0.434594
2.178000	0.471528
2.179000	0.501926
2.180000	0.518316
2.181000	0.521536
2.182000	0.503987
2.183000	0.475747
2.184000	0.442612
2.185000	0.398916
2.186000	0.362014
2.187000	0.333259
2.188000	0.313585
2.189000	0.309882
2.190000	0.323857
2.191000	0.351324
2.192000	0.384265
2.193000	0.428412
2.194000	0.472849
2.195000	0.506402
2.196000	0.532001
2.197000	0.545590
2.198000	0.541082
2.199000	0.518284
2.200000	0.489110
2.201000	0.451886
2.202000	0.408447
2.203000	0.374927
2.204000	0.346526
2.205000	0.333163
2.206000	0.333903
2.207000	0.353191
2.208000	0.384039
2.209000	0.419975
2.210000	0.465958
2.211000	0.505049
2.212000	0.536832
2.213000	0.559726
2.214000	0.566875
2.215000	0.555154
2.216000	0.529361
2.217000	0.499672
2.218000	0.458423
2.219000	0.416659
2.220000	0.384651
2.221000	0.361757
2.222000	0.351936
2.223000	0.357571
2.224000	0.383106
2.225000	0.414244
2.226000	0.453786
2.227000	0.499028
2.228000	0.535028
2.229000	0.566585
2.230000	0.582653
2.231000	0.584135
2.232000	0.567261
2.233000	0.539279
2.234000	0.505822
2.235000	0.461900
2.236000	0.423614
2.237000	0.394601
2.238000	0.374991
2.239000	0.369581
2.240000	0.383589
2.241000	0.411668
2.242000	0.443385
2.243000	0.486502
2.244000	0.530263
2.245000	0.564814
2.246000	0.590607
2.247000	0.602908
2.248000	0.599205
2.249000	0.576149
2.250000	0.547200
2.251000	0.509300
2.252000	0.465475
2.253000	0.431503
2.254000	0.403456
2.255000	0.388966
2.256000	0.389481
2.257000	0.408512
2.258000	0.437814
2.259000	0.473396
2.260000	0.519185
2.261000	0.558986
2.262000	0.590639
2.263000	0.612729
2.264000	0.620167
2.265000	0.609155
2.266000	0.582460
2.267000	0.552642
2.268000	0.510878
2.269000	0.468856
2.270000	0.437847
2.271000	0.413632
2.272000	0.402716
2.273000	0.408705
2.274000	0.433017
2.275000	0.463607
2.276000	0.502892
2.277000	0.548295
2.278000	0.584875
2.279000	0.614822
2.280000	0.630922
2.281000	0.632822
2.282000	0.615627
2.283000	0.587580
2.284000	0.554252
2.285000	0.510362
2.286000	0.472269
2.287000	0.442419
2.288000	0.421585
2.289000	0.416659
2.290000	0.429217
2.291000	0.456716
2.292000	0.489013
2.293000	0.531712
2.294000	0.575569
2.295000	0.608189
2.296000	0.634304
2.297000	0.647635
2.298000	0.642966
2.299000	0.619942
2.300000	0.591219
2.301000	0.553769
2.302000	0.509815
2.303000	0.474813
2.304000	0.445671
2.305000	0.432018
2.306000	0.430988
2.307000	0.449793
2.308000	0.479836
2.309000	0.514420
2.310000	0.559469
2.311000	0.598593
2.312000	0.630600
2.313000	0.653334
2.314000	0.659646
2.315000	0.649084
2.316000	0.623452
2.317000	0.592861
2.318000	0.550968
2.319000	0.508173
2.320000	0.476294
2.321000	0.452594
2.322000	0.440745
2.323000	0.446380
2.324000	0.470852
2.325000	0.501089
2.326000	0.539279
2.327000	0.584392
2.328000	0.620393
2.329000	0.651563
2.330000	0.667084
2.331000	0.668920
2.332000	0.652111
2.333000	0.624289
2.334000	0.590188
2.335000	0.545655
2.336000	0.507046
2.337000	0.477679
2.338000	0.456652
2.339000	0.450695
2.340000	0.462995
2.341000	0.489915
2.342000	0.521118
2.343000	0.563590
2.344000	0.607706
2.345000	0.641323
2.346000	0.666183
2.347000	0.679546
2.348000	0.676101
2.349000	0.652658
2.350000	0.622937
2.351000	0.584811
2.352000	0.540921
2.353000	0.506627
2.354000	0.477228
2.355000	0.461611
2.356000	0.461707
2.357000	0.479160
2.358000	0.508108
2.359000	0.542402
2.360000	0.587612
2.361000	0.627799
2.362000	0.658583
2.363000	0.680834
2.364000	0.688723
2.365000	0.676777
2.366000	0.650565
2.367000	0.620071
2.368000	0.578886
2.369000	0.536477
2.370000	0.503633
2.371000	0.478613
2.372000	0.467600
2.373000	0.471432
2.374000	0.495293
2.375000	0.525787
2.376000	0.564363
2.377000	0.609155
2.378000	0.644382
2.379000	0.674684
2.380000	0.691557
2.381000	0.692684
2.382000	0.675585
2.383000	0.648021
2.384000	0.614500
2.385000	0.569870
2.386000	0.530198
2.387000	0.499543
2.388000	0.479096
2.389000	0.472333
2.390000	0.483894
2.391000	0.511200
2.392000	0.542112
2.393000	0.583845
2.394000	0.627091
2.395000	0.660419
2.396000	0.686276
2.397000	0.698867
2.398000	0.695228
2.399000	0.672816
2.400000	0.642933
2.401000	0.604743
2.402000	0.560564
2.403000	0.524692
2.404000	0.495872
2.405000	0.480029
2.406000	0.478935
2.407000	0.497096
2.408000	0.525175
2.409000	0.558857
2.410000	0.603680
2.411000	0.643577
2.412000	0.675038
2.413000	0.696999
2.414000	0.704212
2.415000	0.693908
2.416000	0.667503
2.417000	0.636493
2.418000	0.594825
2.419000	0.551676
2.420000	0.519379
2.421000	0.494230
2.422000	0.481575
2.423000	0.486373
2.424000	0.509976
2.425000	0.539247
2.426000	0.577598
2.427000	0.622196
2.428000	0.658551
2.429000	0.688723
2.430000	0.705082
2.431000	0.707368
2.432000	0.690366
2.433000	0.661996
2.434000	0.628540
2.435000	0.584102
2.436000	0.544495
2.437000	0.514388
2.438000	0.492330
2.439000	0.486083
2.440000	0.497192
2.441000	0.523436
2.442000	0.554252
2.443000	0.596435
2.444000	0.640003
2.445000	0.673396
2.446000	0.698706
2.447000	0.712488
2.448000	0.708946
2.449000	0.685568
2.450000	0.656329
2.451000	0.618332
2.452000	0.574667
2.453000	0.539086
2.454000	0.508881
2.455000	0.493554
2.456000	0.492008
2.457000	0.509300
2.458000	0.537250
2.459000	0.571802
2.460000	0.616271
2.461000	0.656265
2.462000	0.686791
2.463000	0.710008
2.464000	0.717608
2.465000	0.706885
2.466000	0.680576
2.467000	0.650275
2.468000	0.609187
2.469000	0.566005
2.470000	0.533064
2.471000	0.507110
2.472000	0.495615
2.473000	0.498545
2.474000	0.522373
2.475000	0.551998
2.476000	0.590543
2.477000	0.634561
2.478000	0.670176
2.479000	0.701475
2.480000	0.718220
2.481000	0.719733
2.482000	0.703343
2.483000	0.675907
2.484000	0.642515
2.485000	0.598239
2.486000	0.557408
2.487000	0.527171
2.488000	0.506305
2.489000	0.498126
2.490000	0.509396
2.491000	0.536091
2.492000	0.566810
2.493000	0.607867
2.494000	0.651402
2.495000	0.685246
2.496000	0.712134
2.497000	0.723951
2.498000	0.721665
2.499000	0.699253
2.500000	0.669403
2.501000	0.631438
2.502000	0.586678
2.503000	0.551901
2.504000	0.522212
2.505000	0.505339
2.506000	0.504212
2.507000	0.521246
2.508000	0.548456
2.509000	0.582589
2.510000	0.626575
2.511000	0.667857
2.512000	0.698867
2.513000	0.720796
2.514000	0.729168
2.515000	0.718864
2.516000	0.692330
2.517000	0.661385
2.518000	0.620683
2.519000	0.577340
2.520000	0.544689
2.521000	0.517994
2.522000	0.506144
2.523000	0.510169
2.524000	0.532034
2.525000	0.561852
2.526000	0.599913
2.527000	0.644930
2.528000	0.680544
2.529000	0.711103
2.530000	0.728041
2.531000	0.730488
2.532000	0.713905
2.533000	0.686276
2.534000	0.653045
2.535000	0.608704
2.536000	0.568775
2.537000	0.537476
2.538000	0.516030
2.539000	0.508205
2.540000	0.518638
2.541000	0.544592
2.542000	0.576052
2.543000	0.616947
2.544000	0.660934
2.545000	0.693940
2.546000	0.720635
2.547000	0.733998
2.548000	0.731004
2.549000	0.708463
2.550000	0.678805
2.551000	0.641839
2.552000	0.597079
2.553000	0.561852
2.554000	0.531325
2.555000	0.514871
2.556000	0.513035
2.557000	0.529458
2.558000	0.557955
2.559000	0.591315
2.560000	0.635302
2.561000	0.675811
2.562000	0.706692
2.563000	0.729812
2.564000	0.738023
2.565000	0.728202
2.566000	0.702634
2.567000	0.671882
2.568000	0.631083
2.569000	0.587483
2.570000	0.554027
2.571000	0.528202
2.572000	0.515450
2.573000	0.518863
2.574000	0.541533
2.575000	0.571512
2.576000	0.608060
2.577000	0.652819
2.578000	0.688949
2.579000	0.720216
2.580000	0.737090
2.581000	0.739247
2.582000	0.724080
2.583000	0.696323
2.584000	0.663252
2.585000	0.618815
2.586000	0.578145
2.587000	0.547780
2.588000	0.525787
2.589000	0.517318
2.590000	0.527944
2.591000	0.553640
2.592000	0.584102
2.593000	0.624482
2.594000	0.668823
2.595000	0.703085
2.596000	0.729039
2.597000	0.742274
2.598000	0.740181
2.599000	0.718123
2.600000	0.687886
2.601000	0.650404
2.602000	0.605806
2.603000	0.570417
2.604000	0.540824
2.605000	0.522728
2.606000	0.521729
2.607000	0.537476
2.608000	0.564975
2.609000	0.597691
2.610000	0.642386
2.611000	0.683861
2.612000	0.714355
2.613000	0.736607
2.614000	0.745494
2.615000	0.736285
2.616000	0.710266
2.617000	0.679127
2.618000	0.638780
2.619000	0.595791
2.620000	0.562141
2.621000	0.535060
2.622000	0.523017
2.623000	0.525690
2.624000	0.546910
2.625000	0.577533
2.626000	0.614597
2.627000	0.659517
2.628000	0.694906
2.629000	0.725078
2.630000	0.743916
2.631000	0.745752
2.632000	0.730392
2.633000	0.702570
2.634000	0.670240
2.635000	0.626189
2.636000	0.585068
2.637000	0.553769
2.638000	0.531744
2.639000	0.523211
2.640000	0.532678
2.641000	0.559147
2.642000	0.589641
2.643000	0.630021
2.644000	0.673621
2.645000	0.707497
2.646000	0.734771
2.647000	0.747652
2.648000	0.745462
2.649000	0.724112
2.650000	0.694713
2.651000	0.657617
2.652000	0.612632
2.653000	0.575923
2.654000	0.546588
2.655000	0.528846
2.656000	0.526495
2.657000	0.542756
2.658000	0.570739
2.659000	0.602457
2.660000	0.646862
2.661000	0.687725
2.662000	0.719057
2.663000	0.742049
2.664000	0.750775
2.665000	0.742338
2.666000	0.716771
2.667000	0.685922
2.668000	0.645059
2.669000	0.601587
2.670000	0.568324
2.671000	0.542112
2.672000	0.529232
2.673000	0.531840
2.674000	0.553769
2.675000	0.582943
2.676000	0.620103
2.677000	0.664895
2.678000	0.701507
2.679000	0.732453
2.680000	0.750614
2.681000	0.753673
2.682000	0.738667
2.683000	0.710910
2.684000	0.678161
2.685000	0.634400
2.686000	0.593859
2.687000	0.563623
2.688000	0.541018
2.689000	0.532291
2.690000	0.541951
2.691000	0.567454
2.692000	0.597788
2.693000	0.638844
2.694000	0.682798
2.695000	0.717318
2.696000	0.744335
2.697000	0.757956
2.698000	0.756507
2.699000	0.735061
2.700000	0.705017
2.701000	0.669016
2.702000	0.624386
2.703000	0.588578
2.704000	0.558535
2.705000	0.540953
2.706000	0.538635
2.707000	0.553801
2.708000	0.581719
2.709000	0.615112
2.710000	0.659517
2.711000	0.700090
2.712000	0.731100
2.713000	0.755154
2.714000	0.764718
2.715000	0.755444
2.716000	0.730263
2.717000	0.700090
2.718000	0.660290
2.719000	0.616400
2.720000	0.582750
2.721000	0.555444
2.722000	0.543529
2.723000	0.545204
2.724000	0.566392
2.725000	0.596661
2.726000	0.633370
2.727000	0.678161
2.728000	0.714323
2.729000	0.745558
2.730000	0.764332
2.731000	0.766908
2.732000	0.752385
2.733000	0.725143
2.734000	0.693232
2.735000	0.648794
2.736000	0.607738
2.737000	0.576857
2.738000	0.555122
2.739000	0.545043
2.740000	0.554671
2.741000	0.580431
2.742000	0.610668
2.743000	0.650984
2.744000	0.694423
2.745000	0.729071
2.746000	0.756990
2.747000	0.769613
2.748000	0.768582
2.749000	0.748424
2.750000	0.718348
2.751000	0.682283
2.752000	0.636622
2.753000	0.600267
2.754000	0.571125
2.755000	0.552707
2.756000	0.550034
2.757000	0.565587
2.758000	0.592829
2.759000	0.624740
2.760000	0.668759
2.761000	0.710298
2.762000	0.742274
2.763000	0.765105
2.764000	0.775280
2.765000	0.767294
2.766000	0.741018
2.767000	0.711039
2.768000	0.670433
2.769000	0.627380
2.770000	0.594568
2.771000	0.566327
2.772000	0.553737
2.773000	0.556442
2.774000	0.576471
2.775000	0.606128
2.776000	0.642869
2.777000	0.688305
2.778000	0.725272
2.779000	0.755798
2.780000	0.774733
2.781000	0.778114
2.782000	0.763720
2.783000	0.735866
2.784000	0.704599
2.785000	0.660580
2.786000	0.620264
2.787000	0.588997
2.788000	0.566231
2.789000	0.557376
2.790000	0.565683
2.791000	0.591476
2.792000	0.622325
2.793000	0.662898
2.794000	0.706498
2.795000	0.740696
2.796000	0.768615
2.797000	0.782268
2.798000	0.781173
2.799000	0.760693
2.800000	0.732066
2.801000	0.695679
2.802000	0.650984
2.803000	0.614146
2.804000	0.584135
2.805000	0.566456
2.806000	0.563365
2.807000	0.577952
2.808000	0.606031
2.809000	0.638393
2.810000	0.682122
2.811000	0.724112
2.812000	0.755187
2.813000	0.779209
2.814000	0.789063
2.815000	0.781205
2.816000	0.755895
2.817000	0.726431
2.818000	0.685600
2.819000	0.642450
2.820000	0.608833
2.821000	0.581075
2.822000	0.568163
2.823000	0.569580
2.824000	0.590736
2.825000	0.620232
2.826000	0.656458
2.827000	0.701121
2.828000	0.738345
2.829000	0.769645
2.830000	0.788322
2.831000	0.791735
2.832000	0.778178
2.833000	0.751065
2.834000	0.718574
2.835000	0.675134
2.836000	0.633499
2.837000	0.603101
2.838000	0.580238
2.839000	0.570385
2.840000	0.578757
2.841000	0.604196
2.842000	0.634175
2.843000	0.674555
2.844000	0.718542
2.845000	0.753383
2.846000	0.781302
2.847000	0.794762
2.848000	0.794698
2.849000	0.773831
2.850000	0.744947
2.851000	0.708495
2.852000	0.664090
2.853000	0.627606
2.854000	0.597594
2.855000	0.578628
2.856000	0.576149
2.857000	0.590059
2.858000	0.617269
2.859000	0.649470
2.860000	0.693328
2.861000	0.736317
2.862000	0.766683
2.863000	0.790512
2.864000	0.801685
2.865000	0.793796
2.866000	0.768486
2.867000	0.738410
2.868000	0.698609
2.869000	0.655524
2.870000	0.622067
2.871000	0.593280
2.872000	0.580818
2.873000	0.581752
2.874000	0.602070
2.875000	0.631985
2.876000	0.668533
2.877000	0.713357
2.878000	0.750517
2.879000	0.780787
2.880000	0.800655
2.881000	0.804487
2.882000	0.790222
2.883000	0.764139
2.884000	0.732034
2.885000	0.689400
2.886000	0.647377
2.887000	0.615724
2.888000	0.593054
2.889000	0.583394
2.890000	0.590188
2.891000	0.616432
2.892000	0.647377
2.893000	0.687210
2.894000	0.730682
2.895000	0.764300
2.896000	0.793764
2.897000	0.807611
2.898000	0.806612
2.899000	0.787646
2.900000	0.758954
2.901000	0.722760
2.902000	0.678419
2.903000	0.640518
2.904000	0.610797
2.905000	0.592442
2.906000	0.587870
2.907000	0.603455
2.908000	0.630407
2.909000	0.662029
2.910000	0.704921
2.911000	0.747104
2.912000	0.779499
2.913000	0.803392
2.914000	0.813568
2.915000	0.807128
2.916000	0.783073
2.917000	0.751677
2.918000	0.712166
2.919000	0.668147
2.920000	0.634948
2.921000	0.607029
2.922000	0.592958
2.923000	0.594825
2.924000	0.614983
2.925000	0.643577
2.926000	0.679610
2.927000	0.724338
2.928000	0.761820
2.929000	0.792733
2.930000	0.812119
2.931000	0.817174
2.932000	0.803392
2.933000	0.776246
2.934000	0.744013
2.935000	0.701636
2.936000	0.659936
2.937000	0.628829
2.938000	0.605001
2.939000	0.595405
2.940000	0.602553
2.941000	0.627252
2.942000	0.657617
2.943000	0.697224
2.944000	0.741437
2.945000	0.775989
2.946000	0.804326
2.947000	0.818559
2.948000	0.818559
2.949000	0.798723
2.950000	0.769226
2.951000	0.734063
2.952000	0.689883
2.953000	0.652304
2.954000	0.622260
2.955000	0.603648
2.956000	0.599140
2.957000	0.613115
2.958000	0.640100
2.959000	0.672236
2.960000	0.715515
2.961000	0.757441
2.962000	0.789385
2.963000	0.813503
2.964000	0.824388
2.965000	0.816949
2.966000	0.792476
2.967000	0.762142
2.968000	0.723114
2.969000	0.679224
2.970000	0.645284
2.971000	0.616657
2.972000	0.603230
2.973000	0.603616
2.974000	0.623355
2.975000	0.653012
2.976000	0.688691
2.977000	0.733258
2.978000	0.770482
2.979000	0.801524
2.980000	0.821747
2.981000	0.826159
2.982000	0.813342
2.983000	0.786615
2.984000	0.754961
2.985000	0.712713
2.986000	0.670015
2.987000	0.638361
2.988000	0.615402
2.989000	0.604743
2.990000	0.612053
2.991000	0.637459
2.992000	0.667535
2.993000	0.706305
2.994000	0.750163
2.995000	0.785681
2.996000	0.815178
2.997000	0.828606
2.998000	0.829121
2.999000	0.810605
3.000000	0.781270
3.001000	0.746428
3.002000	0.701411
3.003000	0.663639
3.004000	0.634465
3.005000	0.614951
3.006000	0.610121
3.007000	0.624804
3.008000	0.651306
3.009000	0.682959
3.010000	0.725787
3.011000	0.768582
3.012000	0.801363
3.013000	0.824774
3.014000	0.836044
3.015000	0.830957
3.016000	0.805936
3.017000	0.775635
3.018000	0.736510
3.019000	0.692749
3.020000	0.659871
3.021000	0.631244
3.022000	0.616818
3.023000	0.618461
3.024000	0.637363
3.025000	0.666022
3.026000	0.701668
3.027000	0.746686
3.028000	0.785456
3.029000	0.815500
3.030000	0.835658
3.031000	0.842131
3.032000	0.828509
3.033000	0.801138
3.034000	0.770289
3.035000	0.728009
3.036000	0.686888
3.037000	0.654751
3.038000	0.630826
3.039000	0.621423
3.040000	0.627413
3.041000	0.651660
3.042000	0.682637
3.043000	0.722052
3.044000	0.766425
3.045000	0.800719
3.046000	0.830184
3.047000	0.845351
3.048000	0.845125
3.049000	0.825837
3.050000	0.797725
3.051000	0.763784
3.052000	0.718896
3.053000	0.681253
3.054000	0.650758
3.055000	0.632050
3.056000	0.626253
3.057000	0.639939
3.058000	0.667374
3.059000	0.699382
3.060000	0.741984
3.061000	0.784715
3.062000	0.816820
3.063000	0.841358
3.064000	0.852596
3.065000	0.847057
3.066000	0.822938
3.067000	0.793442
3.068000	0.754832
3.069000	0.710330
3.070000	0.676326
3.071000	0.648214
3.072000	0.633885
3.073000	0.634690
3.074000	0.653882
3.075000	0.683217
3.076000	0.718123
3.077000	0.763076
3.078000	0.801428
3.079000	0.832696
3.080000	0.852822
3.081000	0.858843
3.082000	0.846510
3.083000	0.819847
3.084000	0.788773
3.085000	0.746170
3.086000	0.704405
3.087000	0.672558
3.088000	0.648987
3.089000	0.638425
3.090000	0.644930
3.091000	0.668920
3.092000	0.699607
3.093000	0.738217
3.094000	0.783009
3.095000	0.818076
3.096000	0.847862
3.097000	0.862353
3.098000	0.863416
3.099000	0.845125
3.100000	0.816208
3.101000	0.781753
3.102000	0.737186
3.103000	0.699865
3.104000	0.669789
3.105000	0.649180
3.106000	0.644318
3.107000	0.657553
3.108000	0.684827
3.109000	0.715966
3.110000	0.758890
3.111000	0.802040
3.112000	0.834306
3.113000	0.858489
3.114000	0.870887
3.115000	0.865863
3.116000	0.841712
3.117000	0.811668
3.118000	0.773252
3.119000	0.729683
3.120000	0.695808
3.121000	0.666440
3.122000	0.652433
3.123000	0.653367
3.124000	0.671496
3.125000	0.700799
3.126000	0.735383
3.127000	0.780948
3.128000	0.819139
3.129000	0.849473
3.130000	0.870854
3.131000	0.877327
3.132000	0.864511
3.133000	0.837719
3.134000	0.807417
3.135000	0.765330
3.136000	0.723565
3.137000	0.691235
3.138000	0.667084
3.139000	0.656941
3.140000	0.661868
3.141000	0.686212
3.142000	0.717093
3.143000	0.755895
3.144000	0.800236
3.145000	0.834628
3.146000	0.864511
3.147000	0.880354
3.148000	0.880032
3.149000	0.862546
3.150000	0.834338
3.151000	0.800494
3.152000	0.755927
3.153000	0.717189
3.154000	0.686727
3.155000	0.667406
3.156000	0.661030
3.157000	0.674394
3.158000	0.702409
3.159000	0.733097
3.160000	0.775345
3.161000	0.817561
3.162000	0.850793
3.163000	0.875781
3.164000	0.887084
3.165000	0.882898
3.166000	0.860035
3.167000	0.829991
3.168000	0.791284
3.169000	0.747233
3.170000	0.712649
3.171000	0.684698
3.172000	0.669306
3.173000	0.669789
3.174000	0.688595
3.175000	0.717189
3.176000	0.751065
3.177000	0.796211
3.178000	0.835304
3.179000	0.866604
3.180000	0.887535
3.181000	0.894394
3.182000	0.882737
3.183000	0.855655
3.184000	0.824549
3.185000	0.782880
3.186000	0.740922
3.187000	0.709364
3.188000	0.684763
3.189000	0.674007
3.190000	0.679578
3.191000	0.703632
3.192000	0.732903
3.193000	0.771996
3.194000	0.816402
3.195000	0.852145
3.196000	0.881996
3.197000	0.897453
3.198000	0.898419
3.199000	0.880901
3.200000	0.852435
3.201000	0.818462
3.202000	0.774475
3.203000	0.735737
3.204000	0.706048
3.205000	0.685278
3.206000	0.679675
3.207000	0.692137
3.208000	0.718960
3.209000	0.750163
3.210000	0.792991
3.211000	0.835658
3.212000	0.868472
3.213000	0.893621
3.214000	0.906019
3.215000	0.901800
3.216000	0.877907
3.217000	0.848603
3.218000	0.810476
3.219000	0.766715
3.220000	0.732163
3.221000	0.702892
3.222000	0.688240
3.223000	0.687951
3.224000	0.705758
3.225000	0.734320
3.226000	0.769613
3.227000	0.814083
3.228000	0.852886
3.229000	0.883606
3.230000	0.906212
3.231000	0.912234
3.232000	0.900770
3.233000	0.874268
3.234000	0.844030
3.235000	0.802684
3.236000	0.759856
3.237000	0.727268
3.238000	0.702795
3.239000	0.691460
3.240000	0.696065
3.241000	0.720506
3.242000	0.750517
3.243000	0.789159
3.244000	0.832599
3.245000	0.868246
3.246000	0.898967
3.247000	0.914134
3.248000	0.915325
3.249000	0.898323
3.250000	0.870404
3.251000	0.836141
3.252000	0.791671
3.253000	0.752095
3.254000	0.722438
3.255000	0.702183
3.256000	0.694713
3.257000	0.707754
3.258000	0.734320
3.259000	0.765298
3.260000	0.806580
3.261000	0.849537
3.262000	0.883155
3.263000	0.908724
3.264000	0.920123
3.265000	0.916839
3.266000	0.893621
3.267000	0.863706
3.268000	0.824935
3.269000	0.780561
3.270000	0.746428
3.271000	0.717576
3.272000	0.701250
3.273000	0.701250
3.274000	0.719411
3.275000	0.746235
3.276000	0.780626
3.277000	0.825064
3.278000	0.865123
3.279000	0.896358
3.280000	0.916903
3.281000	0.924728
3.282000	0.913522
3.283000	0.886311
3.284000	0.855108
3.285000	0.813729
3.286000	0.771287
3.287000	0.739408
3.288000	0.713550
3.289000	0.702377
3.290000	0.707046
3.291000	0.729490
3.292000	0.759534
3.293000	0.798304
3.294000	0.842646
3.295000	0.877874
3.296000	0.907468
3.297000	0.924020
3.298000	0.925147
3.299000	0.907146
3.300000	0.879710
3.301000	0.846220
3.302000	0.802104
3.303000	0.763108
3.304000	0.731905
3.305000	0.711168
3.306000	0.704148
3.307000	0.715676
3.308000	0.742210
3.309000	0.773767
3.310000	0.815371
3.311000	0.857909
3.312000	0.891077
3.313000	0.916710
3.314000	0.929397
3.315000	0.925469
3.316000	0.902122
3.317000	0.872851
3.318000	0.834917
3.319000	0.790930
3.320000	0.755863
3.321000	0.726045
3.322000	0.710491
3.323000	0.709622
3.324000	0.727107
3.325000	0.755380
3.326000	0.789417
3.327000	0.833565
3.328000	0.873366
3.329000	0.904409
3.330000	0.926403
3.331000	0.933390
3.332000	0.922506
3.333000	0.896777
3.334000	0.865960
3.335000	0.824710
3.336000	0.781688
3.337000	0.748618
3.338000	0.723790
3.339000	0.711651
3.340000	0.715805
3.341000	0.739279
3.342000	0.769130
3.343000	0.807063
3.344000	0.851083
3.345000	0.886955
3.346000	0.917579
3.347000	0.933229
3.348000	0.935129
3.349000	0.918674
3.350000	0.890981
3.351000	0.857072
3.352000	0.812570
3.353000	0.772994
3.354000	0.742725
3.355000	0.721408
3.356000	0.714388
3.357000	0.726141
3.358000	0.752353
3.359000	0.782590
3.360000	0.823872
3.361000	0.867924
3.362000	0.901188
3.363000	0.926628
3.364000	0.939122
3.365000	0.936804
3.366000	0.913329
3.367000	0.883477
3.368000	0.845190
3.369000	0.801074
3.370000	0.766264
3.371000	0.737186
3.372000	0.720184
3.373000	0.720023
3.374000	0.736768
3.375000	0.764461
3.376000	0.798272
3.377000	0.842581
3.378000	0.883220
3.379000	0.913618
3.380000	0.935065
3.381000	0.943920
3.382000	0.932746
3.383000	0.906437
3.384000	0.875942
3.385000	0.834982
3.386000	0.792250
3.387000	0.759566
3.388000	0.733258
3.389000	0.722341
3.390000	0.725304
3.391000	0.748135
3.392000	0.778307
3.393000	0.816305
3.394000	0.861194
3.395000	0.896165
3.396000	0.926145
3.397000	0.943985
3.398000	0.945080
3.399000	0.928045
3.400000	0.900963
3.401000	0.867699
3.402000	0.824291
3.403000	0.783588
3.404000	0.752836
3.405000	0.732292
3.406000	0.724499
3.407000	0.735447
3.408000	0.762142
3.409000	0.792830
3.410000	0.833919
3.411000	0.876876
3.412000	0.909947
3.413000	0.937094
3.414000	0.949137
3.415000	0.946142
3.416000	0.924438
3.417000	0.894877
3.418000	0.857201
3.419000	0.812505
3.420000	0.777019
3.421000	0.748199
3.422000	0.731648
3.423000	0.729651
3.424000	0.747362
3.425000	0.775055
3.426000	0.808351
3.427000	0.852596
3.428000	0.893041
3.429000	0.924406
3.430000	0.946561
3.431000	0.954611
3.432000	0.944919
3.433000	0.919125
3.434000	0.887793
3.435000	0.847444
3.436000	0.804068
3.437000	0.771931
3.438000	0.745784
3.439000	0.733805
3.440000	0.737637
3.441000	0.760049
3.442000	0.789803
3.443000	0.827479
3.444000	0.872271
3.445000	0.908047
3.446000	0.939026
3.447000	0.955899
3.448000	0.958637
3.449000	0.942568
3.450000	0.914230
3.451000	0.881223
3.452000	0.837558
3.453000	0.797338
3.454000	0.767198
3.455000	0.745140
3.456000	0.737895
3.457000	0.748779
3.458000	0.774346
3.459000	0.805678
3.460000	0.846220
3.461000	0.890497
3.462000	0.923891
3.463000	0.949974
3.464000	0.963145
3.465000	0.960762
3.466000	0.938865
3.467000	0.908917
3.468000	0.872271
3.469000	0.827833
3.470000	0.792991
3.471000	0.762432
3.472000	0.746203
3.473000	0.744625
3.474000	0.761015
3.475000	0.789159
3.476000	0.822681
3.477000	0.867151
3.478000	0.907500
3.479000	0.938253
3.480000	0.961503
3.481000	0.969972
3.482000	0.959860
3.483000	0.934743
3.484000	0.904022
3.485000	0.864350
3.486000	0.820781
3.487000	0.787549
3.488000	0.761917
3.489000	0.749906
3.490000	0.752772
3.491000	0.775313
3.492000	0.805711
3.493000	0.842903
3.494000	0.887632
3.495000	0.922667
3.496000	0.954644
3.497000	0.971968
3.498000	0.973965
3.499000	0.958991
3.500000	0.931426
3.501000	0.899095
3.502000	0.854689
3.503000	0.813986
3.504000	0.783846
3.505000	0.762786
3.506000	0.753770
3.507000	0.764750
3.508000	0.790866
3.509000	0.821586
3.510000	0.861967
3.511000	0.905439
3.512000	0.940217
3.513000	0.966719
3.514000	0.979149
3.515000	0.977378
3.516000	0.956511
3.517000	0.925855
3.518000	0.889628
3.519000	0.844481
3.520000	0.809543
3.521000	0.780497
3.522000	0.762432
3.523000	0.761498
3.524000	0.777760
3.525000	0.805002
3.526000	0.837816
3.527000	0.882544
3.528000	0.923504
3.529000	0.955191
3.530000	0.976960
3.531000	0.986717
3.532000	0.977571
3.533000	0.950940
3.534000	0.920864
3.535000	0.880515
3.536000	0.837622
3.537000	0.804938
3.538000	0.777985
3.539000	0.766296
3.540000	0.769613
3.541000	0.790415
3.542000	0.820974
3.543000	0.857877
3.544000	0.903056
3.545000	0.939702
3.546000	0.969650
3.547000	0.988391
3.548000	0.990807
3.549000	0.975221
3.550000	0.947495
3.551000	0.916034
3.552000	0.871981
3.553000	0.831987
3.554000	0.800848
3.555000	0.778951
3.556000	0.770837
3.557000	0.779950
3.558000	0.806483
3.559000	0.837397
3.560000	0.878325
3.561000	0.921830
3.562000	0.955964
3.563000	0.983303
3.564000	0.996345
3.565000	0.994284
3.566000	0.973256
3.567000	0.944307
3.568000	0.907661
3.569000	0.862997
3.570000	0.827157
3.571000	0.797757
3.572000	0.780304
3.573000	0.778017
3.574000	0.794086
3.575000	0.822520
3.576000	0.855108
3.577000	0.899482
3.578000	0.940700
3.579000	0.971936
3.580000	0.995476
3.581000	1.004525
3.582000	0.996055
3.583000	0.970680
3.584000	0.941119
3.585000	0.900609
3.586000	0.857587
3.587000	0.824259
3.588000	0.798272
3.589000	0.785585
3.590000	0.788547
3.591000	0.810444
3.592000	0.840295
3.593000	0.877198
3.594000	0.921991
3.595000	0.959023
3.596000	0.990066
3.597000	1.008131
3.598000	1.011190
3.599000	0.996474
3.600000	0.969102
3.601000	0.936772
3.602000	0.893170
3.603000	0.852628
3.604000	0.822552
3.605000	0.799882
3.606000	0.791478
3.607000	0.801814
3.608000	0.827736
3.609000	0.857974
3.610000	0.899224
3.611000	0.943792
3.612000	0.978312
3.613000	1.005169
3.614000	1.018822
3.615000	1.018050
3.616000	0.996893
3.617000	0.967718
3.618000	0.931072
3.619000	0.886987
3.620000	0.851469
3.621000	0.821618
3.622000	0.804101
3.623000	0.802909
3.624000	0.817722
3.625000	0.845544
3.626000	0.879034
3.627000	0.923665
3.628000	0.965109
3.629000	0.994993
3.630000	1.019434
3.631000	1.029932
3.632000	1.020755
3.633000	0.995250
3.634000	0.965624
3.635000	0.925340
3.636000	0.882672
3.637000	0.848925
3.638000	0.821811
3.639000	0.810798
3.640000	0.812634
3.641000	0.833919
3.642000	0.863867
3.643000	0.901414
3.644000	0.946819
3.645000	0.983207
3.646000	1.014572
3.647000	1.033990
3.648000	1.036856
3.649000	1.022493
3.650000	0.995605
3.651000	0.963370
3.652000	0.919672
3.653000	0.878744
3.654000	0.847991
3.655000	0.826255
3.656000	0.816820
3.657000	0.826609
3.658000	0.853272
3.659000	0.883864
3.660000	0.924406
3.661000	0.968040
3.662000	1.002625
3.663000	1.031478
3.664000	1.044488
3.665000	1.043489
3.666000	1.023878
3.667000	0.995089
3.668000	0.958508
3.669000	0.913683
3.670000	0.877263
3.671000	0.848539
3.672000	0.830763
3.673000	0.827801
3.674000	0.844063
3.675000	0.871531
3.676000	0.903636
3.677000	0.947849
3.678000	0.989486
3.679000	1.021560
3.680000	1.045035
3.681000	1.055179
3.682000	1.047289
3.683000	1.021946
3.684000	0.991418
3.685000	0.951134
3.686000	0.907919
3.687000	0.875137
3.688000	0.847476
3.689000	0.834563
3.690000	0.837461
3.691000	0.858103
3.692000	0.887503
3.693000	0.924406
3.694000	0.969682
3.695000	1.007069
3.696000	1.037693
3.697000	1.055308
3.698000	1.055308
3.699000	1.045840
3.700000	1.018790
3.701000	0.986459
3.702000	0.943695
3.703000	0.902444
3.704000	0.871692
3.705000	0.849215
3.706000	0.840070
3.707000	0.848700
3.708000	0.874654
3.709000	0.905342
3.710000	0.946400
3.711000	0.989905
3.712000	1.024458
3.713000	1.052442
3.714000	1.055308
3.715000	1.055308
3.716000	1.045261
3.717000	1.016150
3.718000	0.980148
3.719000	0.935741
3.720000	0.899224
3.721000	0.868922
3.722000	0.851501
3.723000	0.848506
3.724000	0.863190
3.725000	0.891206
3.726000	0.923698
3.727000	0.968136
3.728000	1.009613
3.729000	1.041074
3.730000	1.055308
3.731000	1.055308
3.732000	1.055308
3.733000	1.043039
3.734000	1.012929
3.735000	0.973353
3.736000	0.929816
3.737000	0.896004
3.738000	0.869051
3.739000	0.856106
3.740000	0.857684
3.741000	0.879227
3.742000	0.908659
3.743000	0.945434
3.744000	0.989937
3.745000	1.027195
3.746000	1.055308
3.747000	1.055308
3.748000	1.055308
3.749000	1.055308
3.750000	1.041396
3.751000	1.009999
3.752000	0.966172
3.753000	0.924728
3.754000	0.894104
3.755000	0.872110
3.756000	0.862063
3.757000	0.870790
3.758000	0.897034
3.759000	0.926950
3.760000	0.967428
3.761000	1.011416
3.762000	1.047032
3.763000	1.055308
3.764000	1.055308
3.765000	1.055308
3.766000	1.055308
3.767000	1.040366
3.768000	1.004299
3.769000	0.959989
3.770000	0.923698
3.771000	0.894716
3.772000	0.875588
3.773000	0.873141
3.774000	0.888211
3.775000	0.914842
3.776000	0.947269
3.777000	0.991998
3.778000	1.034666
3.779000	1.055308
3.780000	1.055308
3.781000	1.055308
3.782000	1.055308
3.783000	1.055308
3.784000	1.039786
3.785000	1.000145
3.786000	0.957284
3.787000	0.924664
3.788000	0.896584
3.789000	0.884025
3.790000	0.885925
3.791000	0.906566
3.792000	0.936224
3.793000	0.973482
3.794000	1.018822
3.795000	1.055308
3.796000	1.055308
3.797000	1.055308
3.798000	1.055308
3.799000	1.055308
3.800000	1.055308
3.801000	1.040301
3.802000	0.997537
3.803000	0.956447
3.804000	0.924953
3.805000	0.901607
3.806000	0.892752
3.807000	0.899868
3.808000	0.925275
3.809000	0.956415
3.810000	0.996377
3.811000	1.040269
3.812000	1.055308
3.813000	1.055308
3.814000	1.055308
3.815000	1.055308
3.816000	1.055308
3.817000	1.055308
3.818000	1.031832
3.819000	0.986878
3.820000	0.949234
3.821000	0.919028
3.822000	0.900351
3.823000	0.895940
3.824000	0.910849
3.825000	0.937673
3.826000	0.969779
3.827000	1.012607
3.828000	1.054792
3.829000	1.055308
3.830000	1.055308
3.831000	1.055308
3.832000	1.055308
3.833000	1.055308
3.834000	1.055308
3.835000	1.018017
3.836000	0.973160
3.837000	0.939863
3.838000	0.911107
3.839000	0.897517
3.840000	0.898065
3.841000	0.917869
3.842000	0.947398
3.843000	0.982531
3.844000	1.027324
3.845000	1.055308
3.846000	1.055308
3.847000	1.055308
3.848000	1.055308
3.849000	1.055308
3.850000	1.055308
3.851000	1.044810
3.852000	1.001304
3.853000	0.958798
3.854000	0.927272
3.855000	0.903668
3.856000	0.892816
3.857000	0.900480
3.858000	0.924406
3.859000	0.954257
3.860000	0.993415
3.861000	1.037854
3.862000	1.055308
3.863000	1.055308
3.864000	1.055308
3.865000	1.055308
3.866000	1.055308
3.867000	1.055308
3.868000	1.027517
3.869000	0.982337
3.870000	0.945337
3.871000	0.914262
3.872000	0.894362
3.873000	0.890433
3.874000	0.903604
3.875000	0.930235
3.876000	0.962179
3.877000	1.005104
3.878000	1.047096
3.879000	1.055308
3.880000	1.055308
3.881000	1.055308
3.882000	1.055308
3.883000	1.055308
3.884000	1.049640
3.885000	1.010224
3.886000	0.965947
3.887000	0.931619
3.888000	0.902283
3.889000	0.889242
3.890000	0.889306
3.891000	0.908241
3.892000	0.938221
3.893000	0.973353
3.894000	1.018597
3.895000	1.054889
3.896000	1.055308
3.897000	1.055308
3.898000	1.055308
3.899000	1.055308
3.900000	1.055308
3.901000	1.038208
3.902000	0.995315
3.903000	0.952937
3.904000	0.920445
3.905000	0.897421
3.906000	0.886955
3.907000	0.893460
3.908000	0.918642
3.909000	0.949395
3.910000	0.988295
3.911000	1.032444
3.912000	1.055308
3.913000	1.055308
3.914000	1.055308
3.915000	1.055308
3.916000	1.055308
3.917000	1.055308
3.918000	1.028258
3.919000	0.982949
3.920000	0.945112
3.921000	0.915808
3.922000	0.896841
3.923000	0.891689
3.924000	0.906212
3.925000	0.934453
3.926000	0.965882
3.927000	1.008936
3.928000	1.051862
3.929000	1.055308
3.930000	1.055308
3.931000	1.055308
3.932000	1.055308
3.933000	1.055308
3.934000	1.055308
3.935000	1.022493
3.936000	0.978699
3.937000	0.945563
3.938000	0.917289
3.939000	0.902799
3.940000	0.904988
3.941000	0.924792
3.942000	0.954289
3.943000	0.989744
3.944000	1.035954
3.945000	1.055308
3.946000	1.055308
3.947000	1.055308
3.948000	1.055308
3.949000	1.055308
3.950000	1.055308
3.951000	1.055308
3.952000	1.019724
3.953000	0.977732
3.954000	0.946947
3.955000	0.923086
3.956000	0.913329
3.957000	0.920381
3.958000	0.945466
3.959000	0.976219
3.960000	1.016085
3.961000	1.055308
3.962000	1.055308
3.963000	1.055308
3.964000	1.055308
3.965000	1.055308
3.966000	1.055308
3.967000	1.055308
3.968000	1.055308
3.969000	1.016697
3.970000	0.979536
3.971000	0.949717
3.972000	0.930460
3.973000	0.926209
3.974000	0.939960
3.975000	0.967879
3.976000	0.999984
3.977000	1.043715
3.978000	1.055308
3.979000	1.055308
3.980000	1.055308
3.981000	1.055308
3.982000	1.055308
3.983000	1.055308
3.984000	1.055308
3.985000	1.055308
3.986000	1.016955
3.987000	0.983336
3.988000	0.955127
3.989000	0.941859
3.990000	0.942858
3.991000	0.962920
3.992000	0.993125
3.993000	1.029159
3.994000	1.055308
3.995000	1.055308
3.996000	1.055308
3.997000	1.055308
3.998000	1.055308
3.999000	1.055308
4.000000	1.055308
4.001000	1.055308
4.002000	1.055308
4.003000	1.021495
4.004000	0.990291
4.005000	0.967750
4.006000	0.957381
4.007000	0.964175
4.008000	0.990098
4.009000	1.020787
4.010000	1.055308
4.011000	1.055308
4.012000	1.055308
4.013000	1.055308
4.014000	1.055308
4.015000	1.055308
4.016000	1.055308
4.017000	1.055308
4.018000	1.055308
4.019000	1.055308
4.020000	1.027581
4.021000	0.998728
4.022000	0.978634
4.023000	0.974190
4.024000	0.988939
4.025000	1.015892
4.026000	1.048030
4.027000	1.055308
4.028000	1.055308
4.029000	1.055308
4.030000	1.055308
4.031000	1.055308
4.032000	1.055308
4.033000	1.055308
4.034000	1.055308
4.035000	1.055308
4.036000	1.055308
4.037000	1.033796
4.038000	1.005523
4.039000	0.991032
4.040000	0.992867
4.041000	1.011867
4.042000	1.041106
4.043000	1.055308
4.044000	1.055308
4.045000	1.055308
4.046000	1.055308
4.047000	1.055308
4.048000	1.055308
4.049000	1.055308
4.050000	1.055308
4.051000	1.055308
4.052000	1.055308
4.053000	1.055308
4.054000	1.039174
4.055000	1.014604
4.056000	1.005330
4.057000	1.010997
4.058000	1.035407
4.059000	1.055308
4.060000	1.055308
4.061000	1.055308
4.062000	1.055308
4.063000	1.055308
4.064000	1.055308
4.065000	1.055308
4.066000	1.055308
4.067000	1.055308
4.068000	1.055308
4.069000	1.055308
4.070000	1.055308
4.071000	1.043006
4.072000	1.024039
4.073000	1.018050
4.074000	1.032154
4.075000	1.055308
4.076000	1.055308
4.077000	1.055308
4.078000	1.055308
4.079000	1.055308
4.080000	1.055308
4.081000	1.055308
4.082000	1.055308
4.083000	1.055308
4.084000	1.055308
4.085000	1.055308
4.086000	1.055308
4.087000	1.055308
4.088000	1.048320
4.089000	1.033925
4.090000	1.034634
4.091000	1.053698
4.092000	1.055308
4.093000	1.055308
4.094000	1.055308
4.095000	1.055308
4.096000	1.055308
4.097000	1.055308
4.098000	1.055308
4.099000	1.055308
4.100000	1.055308
4.101000	1.055308
4.102000	1.055308
4.103000	1.055308
4.104000	1.055308
4.105000	1.053730
4.106000	1.042652
4.107000	1.048706
4.108000	1.055308
4.109000	1.055308
4.110000	1.055308
4.111000	1.055308
4.112000	1.055308
4.113000	1.055308
4.114000	1.055308
4.115000	1.055308
4.116000	1.055308
4.117000	1.055308
4.118000	1.055308
4.119000	1.055308
4.120000	1.055308
4.121000	1.055308
4.122000	1.055308
4.123000	1.052474
4.124000	1.055308
4.125000	1.055308
4.126000	1.055308
4.127000	1.055308
4.128000	1.055308
4.129000	1.055308
4.130000	1.055308
4.131000	1.055308
4.132000	1.055308
4.133000	1.055308
4.134000	1.055308
4.135000	1.055308
4.136000	1.055308
4.137000	1.055308
4.138000	1.055308
4.139000	1.055308
4.140000	1.055308
4.141000	1.055308
4.142000	1.055308
4.143000	1.055308
4.144000	1.055308
4.145000	1.055308
4.146000	1.055308
4.147000	1.055308
4.148000	1.055308
4.149000	1.055308
4.150000	1.055308
4.151000	1.055308
4.152000	1.055308
4.153000	1.055308
4.154000	1.055308
4.155000	1.055308
4.156000	1.055308
4.157000	1.055308
4.158000	1.055308
4.159000	1.055308
4.160000	1.055308
4.161000	1.055308
4.162000	1.055308
4.163000	1.055308
4.164000	1.055308
4.165000	1.055308
4.166000	1.055308
4.167000	1.055308
4.168000	1.055308
4.169000	1.055308
4.170000	1.055308
4.171000	1.055308
4.172000	1.055308
4.173000	1.055308
4.174000	1.055308
4.175000	1.055308
4.176000	1.055308
4.177000	1.055308
4.178000	1.055308
4.179000	1.055308
4.180000	1.055308
4.181000	1.055308
4.182000	1.055308
4.183000	1.055308
4.184000	1.055308
4.185000	1.055308
4.186000	1.055308
4.187000	1.055308
4.188000	1.055308
4.189000	1.055308
4.190000	1.055308
4.191000	1.055308
4.192000	1.055308
4.193000	1.055308
4.194000	1.055308
4.195000	1.055308
4.196000	1.055308
4.197000	1.055308
4.198000	1.055308
4.199000	1.055308
4.200000	1.055308
4.201000	1.055308
4.202000	1.055308
4.203000	1.055308
4.204000	1.055308
4.205000	1.055308
4.206000	1.055308
4.207000	1.055308
4.208000	1.055308
4.209000	1.055308
4.210000	1.055308
4.211000	1.055308
4.212000	1.055308
4.213000	1.055308
4.214000	1.055308
4.215000	1.055308
4.216000	1.055308
4.217000	1.055308
4.218000	1.055308
4.219000	1.055308
4.220000	1.055308
4.221000	1.055308
4.222000	1.055308
4.223000	1.055308
4.224000	1.055308
4.225000	1.055308
4.226000	1.055308
4.227000	1.055308
4.228000	1.055308
4.229000	1.055308
4.230000	1.055308
4.231000	1.055308
4.232000	1.055308
4.233000	1.055308
4.234000	1.055308
4.235000	1.055308
4.236000	1.055308
4.237000	1.055308
4.238000	1.055308
4.239000	1.055308
4.240000	1.055308
4.241000	1.055308
4.242000	1.055308
4.243000	1.055308
4.244000	1.055308
4.245000	1.055308
4.246000	1.055308
4.247000	1.055308
4.248000	1.055308
4.249000	1.055308
4.250000	1.055308
4.251000	1.055308
4.252000	1.055308
4.253000	1.055308
4.254000	1.055308
4.255000	1.055308
4.256000	1.055308
4.257000	1.055308
4.258000	1.055308
4.259000	1.055308
4.260000	1.055308
4.261000	1.055308
4.262000	1.055308
4.263000	1.055308
4.264000	1.055308
4.265000	1.055308
4.266000	1.055308
4.267000	1.055308
4.268000	1.055308
4.269000	1.055308
4.270000	1.055308
4.271000	1.055308
4.272000	1.055308
4.273000	1.055308
4.274000	1.055308
4.275000	1.055308
4.276000	1.055308
4.277000	1.055308
4.278000	1.055308
4.279000	1.055308
4.280000	1.055308
4.281000	1.055308
4.282000	1.055308
4.283000	1.055308
4.284000	1.055308
4.285000	1.055308
4.286000	1.055308
4.287000	1.055308
4.288000	1.055308
4.289000	1.055308
4.290000	1.055308
4.291000	1.055308
4.292000	1.055308
4.293000	1.055308
4.294000	1.055308
4.295000	1.055308
4.296000	1.055308
4.297000	1.055308
4.298000	1.055308
4.299000	1.055308
4.300000	1.055308
4.301000	1.055308
4.302000	1.055308
4.303000	1.055308
4.304000	1.055308
4.305000	1.055308
4.306000	1.055308
4.307000	1.055308
4.308000	1.055308
4.309000	1.055308
4.310000	1.055308
4.311000	1.055308
4.312000	1.055308
4.313000	1.055308
4.314000	1.055308
4.315000	1.055308
4.316000	1.055308
4.317000	1.055308
4.318000	1.055308
4.319000	1.055308
4.320000	1.055308
4.321000	1.055308
4.322000	1.055308
4.323000	1.055308
4.324000	1.055308
4.325000	1.055308
4.326000	1.055308
4.327000	1.055308
4.328000	1.055308
4.329000	1.055308
4.330000	1.055308
4.331000	1.055308
4.332000	1.055308
4.333000	1.055308
4.334000	1.055308
4.335000	1.055308
4.336000	1.055308
4.337000	1.055308
4.338000	1.055308
4.339000	1.055308
4.340000	1.055308
4.341000	1.055308
4.342000	1.055308
4.343000	1.055308
4.344000	1.055308
4.345000	1.055308
4.346000	1.055308
4.347000	1.055308
4.348000	1.055308
4.349000	1.055308
4.350000	1.055308
4.351000	1.055308
4.352000	1.055308
4.353000	1.055308
4.354000	1.055308
4.355000	1.055308
4.356000	1.055308
4.357000	1.055308
4.358000	1.055308
4.359000	1.055308
4.360000	1.055308
4.361000	1.055308
4.362000	1.055308
4.363000	1.055308
4.364000	1.055308
4.365000	1.055308
4.366000	1.055308
4.367000	1.055308
4.368000	1.055308
4.369000	1.055308
4.370000	1.055308
4.371000	1.055308
4.372000	1.055308
4.373000	1.055308
4.374000	1.055308
4.375000	1.055308
4.376000	1.055308
4.377000	1.055308
4.378000	1.055308
4.379000	1.055308
4.380000	1.055308
4.381000	1.055308
4.382000	1.055308
4.383000	1.055308
4.384000	1.055308
4.385000	1.055308
4.386000	1.055308
4.387000	1.055308
4.388000	1.055308
4.389000	1.055308
4.390000	1.055308
4.391000	1.055308
4.392000	1.055308
4.393000	1.055308
4.394000	1.055308
4.395000	1.055308
4.396000	1.055308
4.397000	1.055308
4.398000	1.055308
4.399000	1.055308
4.400000	1.055308
4.401000	1.055308
4.402000	1.055308
4.403000	1.055308
4.404000	1.055308
4.405000	1.055308
4.406000	1.055308
4.407000	1.055308
4.408000	1.055308
4.409000	1.055308
4.410000	1.055308
4.411000	1.055308
4.412000	1.055308
4.413000	1.055308
4.414000	1.055308
4.415000	1.055308
4.416000	1.055308
4.417000	1.055308
4.418000	1.055308
4.419000	1.055308
4.420000	1.055308
4.421000	1.055308
4.422000	1.055308
4.423000	1.055308
4.424000	1.055308
4.425000	1.055308
4.426000	1.055308
4.427000	1.055308
4.428000	1.055308
4.429000	1.055308
4.430000	1.055308
4.431000	1.055308
4.432000	1.055308
4.433000	1.055308
4.434000	1.055308
4.435000	1.055308
4.436000	1.055308
4.437000	1.055308
4.438000	1.055308
4.439000	1.055308
4.440000	1.055308
4.441000	1.055308
4.442000	1.055308
4.443000	1.055308
4.444000	1.055308
4.445000	1.055308
4.446000	1.055308
4.447000	1.055308
4.448000	1.055308
4.449000	1.055308
4.450000	1.055308
4.451000	1.055308
4.452000	1.055308
4.453000	1.055308
4.454000	1.055308
4.455000	1.055308
4.456000	1.055308
4.457000	1.055308
4.458000	1.055308
4.459000	1.055308
4.460000	1.055308
4.461000	1.055308
4.462000	1.055308
4.463000	1.055308
4.464000	1.055308
4.465000	1.055308
4.466000	1.055308
4.467000	1.055308
4.468000	1.055308
4.469000	1.055308
4.470000	1.055308
4.471000	1.055308
4.472000	1.055308
4.473000	1.055308
4.474000	1.055308
4.475000	1.055308
4.476000	1.055308
4.477000	1.055308
4.478000	1.055308
4.479000	1.055308
4.480000	1.055308
4.481000	1.055308
4.482000	1.055308
4.483000	1.055308
4.484000	1.055308
4.485000	1.055308
4.486000	1.055308
4.487000	1.055308
4.488000	1.055308
4.489000	1.055308
4.490000	1.055308
4.491000	1.055308
4.492000	1.055308
4.493000	1.055308
4.494000	1.055308
4.495000	1.055308
4.496000	1.055308
4.497000	1.055308
4.498000	1.055308
4.499000	1.055308
4.500000	1.055308
4.501000	1.055308
4.502000	1.055308
4.503000	1.055308
4.504000	1.055308
4.505000	1.055308
4.506000	1.055308
4.507000	1.055308
4.508000	1.055308
4.509000	1.055308
4.510000	1.055308
4.511000	1.055308
4.512000	1.055308
4.513000	1.055308
4.514000	1.055308
4.515000	1.055308
4.516000	1.055308
4.517000	1.055308
4.518000	1.055308
4.519000	1.055308
4.520000	1.055308
4.521000	1.055308
4.522000	1.055308
4.523000	1.055308
4.524000	1.055308
4.525000	1.055308
4.526000	1.055308
4.527000	1.055308
4.528000	1.055308
4.529000	1.055308
4.530000	1.055308
4.531000	1.055308
4.532000	1.055308
4.533000	1.055308
4.534000	1.055308
4.535000	1.055308
4.536000	1.055308
4.537000	1.055308
4.538000	1.055308
4.539000	1.055308
4.540000	1.055308
4.541000	1.055308
4.542000	1.055308
4.543000	1.055308
4.544000	1.055308
4.545000	1.055308
4.546000	1.055308
4.547000	1.055308
4.548000	1.055308
4.549000	1.055308
4.550000	1.055308
4.551000	1.055308
4.552000	1.055308
4.553000	1.055308
4.554000	1.055308
4.555000	1.055308
4.556000	1.055308
4.557000	1.055308
4.558000	1.055308
4.559000	1.055308
4.560000	1.055308
4.561000	1.055308
4.562000	1.055308
4.563000	1.055308
4.564000	1.055308
4.565000	1.055308
4.566000	1.055308
4.567000	1.055308
4.568000	1.055308
4.569000	1.055308
4.570000	1.055308
4.571000	1.055308
4.572000	1.055308
4.573000	1.055308
4.574000	1.055308
4.575000	1.055308
4.576000	1.055308
4.577000	1.055308
4.578000	1.055308
4.579000	1.055308
4.580000	1.055308
4.581000	1.055308
4.582000	1.055308
4.583000	1.055308
4.584000	1.055308
4.585000	1.055308
4.586000	1.055308
4.587000	1.055308
4.588000	1.055308
4.589000	1.055308
4.590000	1.055308
4.591000	1.055308
4.592000	1.055308
4.593000	1.055308
4.594000	1.055308
4.595000	1.055308
4.596000	1.055308
4.597000	1.055308
4.598000	1.055308
4.599000	1.055308
4.600000	1.055308
4.601000	1.055308
4.602000	1.055308
4.603000	1.055308
4.604000	1.055308
4.605000	1.055308
4.606000	1.055308
4.607000	1.055308
4.608000	1.055308
4.609000	1.055308
4.610000	1.055308
4.611000	1.055308
4.612000	1.055308
4.613000	1.055308
4.614000	1.055308
4.615000	1.055308
4.616000	1.055308
4.617000	1.055308
4.618000	1.055308
4.619000	1.055308
4.620000	1.055308
4.621000	1.055308
4.622000	1.055308
4.623000	1.055308
4.624000	1.055308
4.625000	1.055308
4.626000	1.055308
4.627000	1.055308
4.628000	1.055308
4.629000	1.055308
4.630000	1.055308
4.631000	1.055308
4.632000	1.055308
4.633000	1.055308
4.634000	1.055308
4.635000	1.055308
4.636000	1.055308
4.637000	1.055308
4.638000	1.055308
4.639000	1.055308
4.640000	1.055308
4.641000	1.055308
4.642000	1.055308
4.643000	1.055308
4.644000	1.055308
4.645000	1.055308
4.646000	1.055308
4.647000	1.055308
4.648000	1.055308
4.649000	1.055308
4.650000	1.055308
4.651000	1.055308
4.652000	1.055308
4.653000	1.055308
4.654000	1.055308
4.655000	1.055308
4.656000	1.055308
4.657000	1.055308
4.658000	1.055308
4.659000	1.055308
4.660000	1.055308
4.661000	1.055308
4.662000	1.055308
4.663000	1.055308
4.664000	1.055308
4.665000	1.055308
4.666000	1.055308
4.667000	1.055308
4.668000	1.055308
4.669000	1.055308
4.670000	1.055308
4.671000	1.055308
4.672000	1.055308
4.673000	1.055308
4.674000	1.055308
4.675000	1.055308
4.676000	1.055308
4.677000	1.055308
4.678000	1.055308
4.679000	1.055308
4.680000	1.055308
4.681000	1.055308
4.682000	1.055308
4.683000	1.055308
4.684000	1.055308
4.685000	1.055308
4.686000	1.055308
4.687000	1.055308
4.688000	1.055308
4.689000	1.055308
4.690000	1.055308
4.691000	1.055308
4.692000	1.055308
4.693000	1.055308
4.694000	1.055308
4.695000	1.055308
4.696000	1.055308
4.697000	1.055308
4.698000	1.055308
4.699000	1.055308
4.700000	1.055308
4.701000	1.055308
4.702000	1.055308
4.703000	1.055308
4.704000	1.055308
4.705000	1.055308
4.706000	1.055308
4.707000	1.055308
4.708000	1.055308
4.709000	1.055308
4.710000	1.055308
4.711000	1.055308
4.712000	1.055308
4.713000	1.055308
4.714000	1.055308
4.715000	1.055308
4.716000	1.055308
4.717000	1.055308
4.718000	1.055308
4.719000	1.055308
4.720000	1.055308
4.721000	1.055308
4.722000	1.055308
4.723000	1.055308
4.724000	1.055308
4.725000	1.055308
4.726000	1.055308
4.727000	1.055308
4.728000	1.055308
4.729000	1.055308
4.730000	1.055308
4.731000	1.055308
4.732000	1.055308
4.733000	1.055308
4.734000	1.055308
4.735000	1.055308
4.736000	1.055308
4.737000	1.055308
4.738000	1.055308
4.739000	1.055308
4.740000	1.055308
4.741000	1.055308
4.742000	1.055308
4.743000	1.055308
4.744000	1.055308
4.745000	1.055308
4.746000	1.055308
4.747000	1.055308
4.748000	1.055308
4.749000	1.055308
4.750000	1.055308
4.751000	1.055308
4.752000	1.055308
4.753000	1.055308
4.754000	1.055308
4.755000	1.055308
4.756000	1.055308
4.757000	1.055308
4.758000	1.055308
4.759000	1.055308
4.760000	1.055308
4.761000	1.055308
4.762000	1.055308
4.763000	1.055308
4.764000	1.055308
4.765000	1.055308
4.766000	1.055308
4.767000	1.055308
4.768000	1.055308
4.769000	1.055308
4.770000	1.055308
4.771000	1.055308
4.772000	1.055308
4.773000	1.055308
4.774000	1.055308
4.775000	1.055308
4.776000	1.055308
4.777000	1.055308
4.778000	1.055308
4.779000	1.055308
4.780000	1.055308
4.781000	1.055308
4.782000	1.055308
4.783000	1.055308
4.784000	1.055308
4.785000	1.055308
4.786000	1.055308
4.787000	1.055308
4.788000	1.055308
4.789000	1.055308
4.790000	1.055308
4.791000	1.055308
4.792000	1.055308
4.793000	1.055308
4.794000	1.055308
4.795000	1.055308
4.796000	1.055308
4.797000	1.055308
4.798000	1.055308
4.799000	1.055308
4.800000	1.055308
4.801000	1.055308
4.802000	1.055308
4.803000	1.055308
4.804000	1.055308
4.805000	1.055308
4.806000	1.055308
4.807000	1.055308
4.808000	1.055308
4.809000	1.055308
4.810000	1.055308
4.811000	1.055308
4.812000	1.055308
4.813000	1.055308
4.814000	1.055308
4.815000	1.055308
4.816000	1.055308
4.817000	1.055308
4.818000	1.055308
4.819000	1.055308
4.820000	1.055308
4.821000	1.055308
4.822000	1.055308
4.823000	1.055308
4.824000	1.055308
4.825000	1.055308
4.826000	1.055308
4.827000	1.055308
4.828000	1.055308
4.829000	1.055308
4.830000	1.055308
4.831000	1.055308
4.832000	1.055308
4.833000	1.055308
4.834000	1.055308
4.835000	1.055308
4.836000	1.055308
4.837000	1.055308
4.838000	1.055308
4.839000	1.055308
4.840000	1.055308
4.841000	1.055308
4.842000	1.055308
4.843000	1.055308
4.844000	1.055308
4.845000	1.055308
4.846000	1.055308
4.847000	1.055308
4.848000	1.055308
4.849000	1.055308
4.850000	1.055308
4.851000	1.055308
4.852000	1.055308
4.853000	1.055308
4.854000	1.055308
4.855000	1.055308
4.856000	1.055308
4.857000	1.055308
4.858000	1.055308
4.859000	1.055308
4.860000	1.055308
4.861000	1.055308
4.862000	1.055308
4.863000	1.055308
4.864000	1.055308
4.865000	1.055308
4.866000	1.055308
4.867000	1.055308
4.868000	1.055308
4.869000	1.055308
4.870000	1.055308
4.871000	1.055308
4.872000	1.055308
4.873000	1.055308
4.874000	1.055308
4.875000	1.055308
4.876000	1.055308
4.877000	1.055308
4.878000	1.055308
4.879000	1.055308
4.880000	1.055308
4.881000	1.055308
4.882000	1.055308
4.883000	1.055308
4.884000	1.055308
4.885000	1.055308
4.886000	1.055308
4.887000	1.055308
4.888000	1.055308
4.889000	1.055308
4.890000	1.055308
4.891000	1.055308
4.892000	1.055308
4.893000	1.055308
4.894000	1.055308
4.895000	1.055308
4.896000	1.055308
4.897000	1.055308
4.898000	1.055308
4.899000	1.055308
4.900000	1.055308
4.901000	1.055308
4.902000	1.055308
4.903000	1.055308
4.904000	1.055308
4.905000	1.055308
4.906000	1.055308
4.907000	1.055308
4.908000	1.055308
4.909000	1.055308
4.910000	1.055308
4.911000	1.055308
4.912000	1.055308
4.913000	1.055308
4.914000	1.055308
4.915000	1.055308
4.916000	1.055308
4.917000	1.055308
4.918000	1.055308
4.919000	1.055308
4.920000	1.055308
4.921000	1.055308
4.922000	1.055308
4.923000	1.055308
4.924000	1.055308
4.925000	1.055308
4.926000	1.055308
4.927000	1.055308
4.928000	1.055308
4.929000	1.055308
4.930000	1.055308
4.931000	1.055308
4.932000	1.055308
4.933000	1.055308
4.934000	1.055308
4.935000	1.055308
4.936000	1.055308
4.937000	1.055308
4.938000	1.055308
4.939000	1.055308
4.940000	1.055308
4.941000	1.055308
4.942000	1.055308
4.943000	1.055308
4.944000	1.055308
4.945000	1.055308
4.946000	1.055308
4.947000	1.055308
4.948000	1.055308
4.949000	1.055308
4.950000	1.055308
4.951000	1.055308
4.952000	1.055308
4.953000	1.055308
4.954000	1.055308
4.955000	1.055308
4.956000	1.055308
4.957000	1.055308
4.958000	1.055308
4.959000	1.055308
4.960000	1.055308
4.961000	1.055308
4.962000	1.055308
4.963000	1.055308
4.964000	1.055308
4.965000	1.055308
4.966000	1.055308
4.967000	1.055308
4.968000	1.055308
4.969000	1.055308
4.970000	1.055308
4.971000	1.055308
4.972000	1.055308
4.973000	1.055308
4.974000	1.055308
4.975000	1.055308
4.976000	1.055308
4.977000	1.055308
4.978000	1.055308
4.979000	1.055308
4.980000	1.055308
4.981000	1.055308
4.982000	1.055308
4.983000	1.055308
4.984000	1.055308
4.985000	1.055308
4.986000	1.055308
4.987000	1.055308
4.988000	1.055308
4.989000	1.055308
4.990000	1.052023
4.991000	1.055308
4.992000	1.055308
4.993000	1.055308
4.994000	1.055308
4.995000	1.055308
4.996000	1.055308
4.997000	1.055308
4.998000	1.055308
4.999000	1.055308
